#sweep_run579_cooldown.swp, buffers: 11,12
#DAC ch 5
#R[mOhm]
<2> 663 0 1 0.1
6.221260 68.024750 68.634827 
6.221260 68.136154 68.608292 
6.223679 68.183441 68.745941 
6.217631 68.088081 69.249420 
6.221260 68.162926 68.721138 
6.220050 68.985420 69.238937 
6.223679 68.939842 68.656357 
6.221260 68.035469 68.686157 
6.220050 68.276146 68.712646 
6.221260 68.359650 68.811440 
6.221260 68.032684 68.816292 
6.223679 68.223221 68.783737 
6.223679 68.064133 68.811356 
6.223679 68.262329 68.820847 
6.227306 68.268044 68.778709 
6.228516 68.128487 68.625961 
6.230935 68.270973 68.711647 
6.233354 67.917740 68.621277 
6.243029 67.896645 68.514633 
6.243029 67.985252 68.338135 
6.250286 67.800964 68.177238 
6.252704 67.299057 67.965981 
6.255123 66.955666 67.916214 
6.261170 66.793358 67.488235 
6.264799 66.219597 67.045929 
6.267218 65.579498 66.617317 
6.273265 65.187363 66.256187 
6.273265 64.917007 65.788086 
6.276893 64.664360 65.269020 
6.276893 64.114220 64.802666 
6.284150 63.451309 64.268394 
6.284150 62.833321 63.775177 
6.286569 62.131828 63.361435 
6.284150 61.515701 62.673347 
6.292615 60.631454 62.212379 
6.290196 59.437859 61.548641 
6.293825 58.367325 60.690727 
6.295034 57.276592 59.649307 
6.299872 56.316605 58.493595 
6.298662 55.051277 57.106213 
6.298662 53.007824 55.623329 
6.303500 50.706188 53.987156 
6.305919 48.255150 52.166027 
6.307128 51.182404 51.109512 
6.305919 43.893631 48.624191 
6.307128 40.945728 46.623970 
6.309547 38.230923 44.215076 
6.307128 35.171989 42.028461 
6.308338 32.188755 39.760750 
6.310757 29.720423 37.541908 
6.310757 27.386604 35.476780 
6.313175 25.055201 33.277607 
6.315594 23.261642 33.138329 
6.315594 22.487257 30.662966 
6.319222 20.491655 28.701546 
6.315594 18.421740 26.816439 
6.315594 16.612919 24.772459 
6.321641 14.897686 22.887878 
6.318013 13.312929 21.107517 
6.320432 11.887002 19.510048 
6.318013 10.472275 17.890450 
6.318013 9.350994 16.528074 
6.321641 8.241277 15.062811 
6.320432 6.919458 13.796301 
6.318013 7.742297 14.220703 
6.324060 6.384648 13.357317 
6.321641 5.502347 11.938041 
6.326479 4.807637 10.854330 
6.325270 4.218152 9.988914 
6.325270 3.747766 9.204808 
6.325270 3.388282 26.018396 
6.327688 3.101523 7.939632 
6.325270 2.805004 7.283587 
6.326479 2.542830 6.774642 
6.326479 2.286384 6.303111 
6.327688 2.116814 5.921017 
6.328898 1.917449 5.604488 
6.330107 1.705569 5.205644 
6.328898 1.620481 4.924267 
6.330108 1.429910 4.655743 
6.330107 1.378390 4.457355 
6.328898 1.246449 4.206206 
6.332526 1.391131 4.016434 
6.331317 0.953181 3.809447 
6.328898 0.854811 3.647648 
6.331317 0.782810 3.540452 
6.333735 0.717326 3.412487 
6.333735 0.647955 3.278052 
6.333735 0.608817 3.162858 
6.333735 0.518002 3.030691 
6.333735 0.456291 2.904216 
6.333735 0.457794 2.798707 
6.334945 0.409052 2.808681 
6.337364 0.400002 2.697258 
6.334945 0.438700 2.607100 
6.334945 0.488374 2.518356 
6.337364 0.427962 2.433801 
6.334945 0.408351 2.341324 
6.333735 0.402415 2.301318 
6.333735 0.425137 2.249568 
6.334945 0.435347 2.148620 
6.334945 0.444062 2.134259 
6.336154 0.449815 3.997980 
6.334945 0.409207 2.002130 
6.334945 0.386348 1.954109 
6.333735 0.403310 1.916737 
6.336154 0.438739 1.910538 
6.337364 0.431274 1.833958 
6.334945 0.404458 1.854399 
6.337364 0.415788 1.849249 
6.338573 0.452897 1.807521 
6.334945 0.437940 1.744344 
6.340992 0.431372 1.907356 
6.334945 0.408001 1.803576 
6.336154 0.415477 1.746830 
6.337364 0.404322 1.669059 
6.339783 0.383898 1.645759 
6.338573 0.403758 1.639268 
6.338573 0.478019 1.600219 
6.334945 0.416197 1.551589 
6.338573 0.444978 1.494485 
6.334945 0.435601 1.511398 
6.336154 0.449015 1.455782 
6.338573 0.401754 1.438171 
6.342202 0.380263 1.396353 
6.339783 0.418164 1.389694 
6.337364 0.419079 1.436793 
6.337364 0.410200 1.339524 
6.339783 0.415360 1.346832 
6.342202 0.402629 1.299592 
6.338573 16.814835 1.292125 
6.336154 0.396267 1.260400 
6.339783 0.378844 1.243671 
6.339783 0.474601 1.239596 
6.336154 0.431664 1.218123 
6.336154 0.404050 1.233845 
6.342202 0.410706 1.341759 
6.344620 0.440221 1.269630 
6.347039 0.432892 1.265996 
6.345830 0.425176 1.215929 
6.348248 0.353962 1.171197 
6.353086 0.491423 1.273251 
6.360343 0.438525 1.041502 
6.366390 0.392843 0.961693 
6.376065 0.369828 0.744097 
6.386950 0.363884 0.562835 
6.397835 0.392454 0.438206 
6.414766 0.413237 0.269635 
6.425652 0.474113 0.246734 
6.436536 0.401831 0.253738 
6.446212 0.381624 0.237461 
6.460725 0.357301 0.261305 
6.476447 0.427553 0.260539 
6.486123 0.412186 0.262091 
6.494589 0.428079 0.248408 
6.503055 0.441488 0.269461 
6.512730 0.470325 0.270943 
6.522406 0.406424 0.266182 
6.534499 0.377911 0.260262 
6.539337 0.402201 0.245588 
6.550222 0.405393 0.248858 
6.559897 0.433905 0.260745 
6.562316 0.406035 0.249393 
6.573201 0.405470 0.260816 
6.579248 0.418982 0.254775 
6.588923 0.368041 0.259953 
6.593761 0.407572 0.246065 
6.599808 0.469524 0.258787 
6.607064 0.405801 0.252141 
6.614321 0.407086 0.258612 
6.617949 0.446721 0.255570 
6.623997 0.445493 0.241656 
6.630044 0.360080 0.279000 
6.633672 0.375392 0.254524 
6.639719 0.447321 0.260630 
6.642138 0.425300 0.248433 
6.645766 0.393344 0.253749 
6.650604 0.426800 0.278444 
6.656651 0.445317 0.271354 
6.660279 0.388711 0.240461 
6.663908 0.459233 0.259676 
6.666327 0.396221 0.250404 
6.672373 0.411570 0.250754 
6.676002 0.411943 0.250128 
6.676002 0.412218 0.254368 
6.680840 0.431683 0.251119 
6.683258 0.425680 0.275284 
6.686887 0.453845 0.240558 
6.690515 0.399095 0.238824 
6.692934 0.399912 0.241550 
6.695353 0.451729 0.265475 
6.696562 0.505390 0.247734 
6.701400 0.412003 0.256416 
6.706237 0.434436 0.268886 
6.706237 0.415469 0.294287 
6.707447 0.391270 0.224659 
6.709866 0.394988 0.253413 
6.712284 0.424131 0.265177 
6.717122 0.397636 0.247200 
6.717122 0.430059 0.238398 
6.717122 0.388842 0.258042 
6.719541 0.399555 0.233224 
6.721960 0.489023 0.265118 
6.726798 0.436700 0.257054 
6.729216 0.418960 0.282959 
6.729216 0.395922 0.257587 
6.730426 0.416543 0.249512 
6.734054 0.428081 0.262141 
6.736473 0.418814 0.260907 
6.736473 0.395601 0.242479 
6.735263 0.485108 0.256232 
6.740101 0.484153 0.263871 
6.741311 0.411546 0.239581 
6.743730 0.401462 0.254452 
6.746148 0.413223 0.270499 
6.742520 0.470147 0.274959 
6.749777 0.439460 0.238096 
6.746148 0.459931 0.248030 
6.749777 0.409772 0.253059 
6.752195 0.383675 0.243843 
6.750986 0.460885 0.255015 
6.753405 0.414315 0.248594 
6.754614 0.490223 0.246790 
6.759452 0.403695 0.261258 
6.760661 0.430884 0.278680 
6.758242 0.405332 0.251008 
6.759452 0.394545 0.255118 
6.760661 0.409302 0.240396 
6.764289 0.408044 0.251357 
6.765499 0.443452 0.250366 
6.766708 0.421837 0.248102 
6.769127 0.391715 0.253941 
6.766708 0.429063 0.249199 
6.770336 0.426868 0.250812 
6.771546 0.527660 0.257118 
6.770337 0.409869 0.252005 
6.770337 0.509451 0.246671 
6.770337 0.414912 0.258565 
6.771546 0.435145 0.241471 
6.772755 0.401637 0.239007 
6.775174 0.406553 0.257541 
6.778802 0.421114 0.254965 
6.776383 0.441927 0.265293 
6.777593 0.418519 0.245423 
6.776383 0.379133 0.243660 
6.780012 0.447379 0.244082 
6.777593 0.417115 0.246486 
6.778802 0.444147 0.253564 
6.780012 0.405818 0.244724 
6.782431 0.447379 0.238040 
6.784850 0.401374 0.262985 
6.778802 0.360755 0.266364 
6.788478 0.447119 0.261558 
6.787269 0.406869 0.260117 
6.784850 0.422049 0.237559 
6.788478 0.461816 0.248562 
6.789687 0.424915 0.231121 
6.792106 0.414403 0.254203 
6.792106 0.391859 0.247284 
6.799363 0.437589 0.266278 
6.799363 0.442746 0.262540 
6.806619 0.392678 0.267187 
6.807829 0.449230 0.241446 
6.809038 0.366826 0.244946 
6.813875 0.432687 0.241922 
6.819922 0.375375 0.251480 
6.822342 0.419220 0.263787 
6.824760 0.424070 0.252560 
6.829598 0.418894 0.262331 
6.835645 0.413315 0.250694 
6.836854 0.450966 0.250115 
6.842902 2.115413 0.235028 
6.845321 0.436726 0.257835 
6.847740 0.428566 0.248791 
6.851368 0.395625 0.263347 
6.854996 0.426199 0.232010 
6.859834 0.410210 0.260986 
6.864671 0.474757 0.243542 
6.867090 0.411475 0.275455 
6.868299 0.431450 0.259412 
6.869509 0.430621 0.234849 
6.869509 0.427017 0.263080 
6.875556 0.423062 0.243008 
6.876765 0.366797 0.255158 
6.877975 0.424358 0.246625 
6.881603 0.543724 0.250423 
6.885231 0.421056 0.245093 
6.888860 0.404819 0.249541 
6.890069 0.403777 0.269426 
6.888860 0.445378 0.250316 
6.893698 0.431498 0.248775 
6.892488 0.441780 0.257183 
6.896116 0.403914 0.258523 
6.896116 0.468412 0.242229 
6.897326 0.423461 0.252721 
6.903373 0.371576 0.257711 
6.903373 0.483137 0.246753 
6.904582 0.440689 0.259688 
6.907001 0.444159 0.253667 
6.908211 0.399944 0.244288 
6.910629 0.404419 0.256088 
6.913048 0.463258 0.261769 
6.910629 0.423968 0.258162 
6.911839 0.412264 0.255271 
6.915467 0.420793 0.247468 
6.915467 0.430163 0.259263 
6.917886 0.384948 0.240807 
6.917886 0.399321 0.252174 
6.920305 0.380730 0.256372 
6.921514 0.420949 0.249373 
6.925142 0.435679 0.239456 
6.922724 0.444276 0.258664 
6.925142 0.464800 0.245659 
6.927561 0.389829 0.244443 
6.929980 0.424182 0.247307 
6.927561 0.463746 0.266253 
6.928771 0.426500 0.249579 
6.928771 0.454984 0.248549 
6.931190 0.415360 0.244301 
6.932399 0.455784 0.256771 
6.932399 0.383140 0.255985 
6.932399 0.440650 0.243677 
6.936027 0.405938 0.231813 
6.932399 0.404108 0.253172 
6.942074 0.425351 0.260751 
6.934817 0.399458 0.258008 
6.937236 0.400080 0.242583 
6.942074 0.400839 0.250931 
6.943284 0.392454 0.253551 
6.942074 0.400002 0.238645 
6.943284 0.406152 0.258690 
6.944493 0.517238 0.270757 
6.945703 0.422410 0.274050 
6.945703 0.440416 0.245421 
6.949331 0.404770 0.263830 
6.951750 0.420715 0.247487 
6.954168 0.400411 0.276248 
6.955378 0.427046 0.247500 
6.961425 0.398913 0.241116 
6.959006 0.393797 0.251060 
6.963844 0.459101 0.260758 
6.966263 0.435952 0.242203 
6.968682 0.444491 0.245350 
6.969891 0.372120 0.250416 
6.973519 0.406599 0.252212 
6.975938 0.412906 0.260068 
6.980776 0.434431 0.256687 
6.983194 0.420696 0.256617 
6.980776 0.402415 0.243272 
6.984404 0.369925 0.264243 
6.984404 0.458067 0.254060 
6.985613 0.424513 0.247133 
6.989242 0.394789 0.253558 
6.995289 0.425468 0.251665 
6.992870 0.471047 0.254459 
6.995289 0.419021 0.244108 
6.992870 2.539853 0.264081 
7.000126 0.445680 0.259933 
7.000126 0.421416 0.246573 
7.004964 0.494980 0.248498 
6.997707 0.456370 0.258130 
7.004964 0.393660 0.262619 
7.006174 0.407670 0.245505 
7.004964 0.451297 0.245859 
7.003755 0.383957 0.253738 
7.007383 0.421630 0.255399 
7.009802 0.395664 0.253081 
7.011011 0.465308 0.249895 
7.012221 0.370488 0.261344 
7.012220 0.406521 0.246663 
7.014639 0.376162 0.253667 
7.014639 0.411290 0.242364 
7.018268 0.460799 0.264880 
7.017058 0.402590 0.278684 
7.019477 0.415846 0.248897 
7.021896 0.418690 0.246843 
7.021896 0.413666 0.286261 
7.021896 0.404595 0.249116 
7.029153 0.460721 0.250197 
7.030362 0.511525 0.245724 
7.033990 0.479504 0.258330 
7.037619 0.414678 0.251008 
7.037619 0.443828 0.261048 
7.041246 0.410570 0.249772 
7.043665 0.424163 0.255193 
7.043665 0.422098 0.268456 
7.048503 0.399944 0.262793 
7.050922 0.438466 0.265969 
7.049713 0.457248 0.245672 
7.059388 0.417365 0.247944 
7.058178 0.413568 0.246760 
7.059388 0.403622 0.253455 
7.063016 0.404556 0.263914 
7.063016 0.401092 0.245106 
7.067854 0.435211 0.247391 
7.070273 0.433749 0.247049 
7.070273 0.403018 0.244256 
7.073901 0.462517 0.267490 
7.075110 0.427027 0.244803 
7.077529 0.390023 0.246541 
7.077529 0.501002 0.245170 
7.079948 0.463805 0.252347 
7.087205 0.369109 0.242615 
7.082367 0.479992 0.247062 
7.084786 0.411135 0.243181 
7.087205 0.390724 0.248890 
7.088414 0.403680 0.248916 
7.090833 0.389168 0.254324 
7.093252 0.419001 0.254279 
7.095671 0.452175 0.250571 
7.098089 0.456994 0.263115 
7.099299 0.436458 0.245833 
7.099299 0.419313 0.253249 
7.101718 0.446616 0.246135 
7.106555 0.462263 0.246290 
7.108974 0.432443 0.254595 
7.117440 0.399963 0.247674 
7.115021 0.436439 0.263141 
7.117440 0.467396 0.246741 
7.124697 0.415477 0.267670 
7.122278 0.388993 0.260474 
7.123487 0.405899 0.264178 
7.127115 0.505930 0.249702 
7.129535 0.565163 0.260990 
7.130744 0.510860 0.250094 
7.138000 0.408001 0.247983 
7.138000 0.437492 0.256571 
7.142838 0.443477 0.256604 
7.146466 0.412828 0.254781 
7.147676 0.431372 0.260693 
7.147676 0.426403 0.245028 
7.152514 0.412264 0.261814 
7.154932 0.481887 0.253461 
7.153723 0.468119 0.250526 
7.159770 0.372664 0.253127 
7.158561 0.386212 0.254118 
7.163398 0.493123 0.255181 
7.163398 0.473117 0.272767 
7.167027 0.364369 0.246766 
7.169446 0.439421 0.242654 
7.171865 0.443399 0.243928 
7.174283 0.471789 0.258310 
7.171865 0.426871 0.250815 
7.175492 0.401384 0.243014 
7.176702 0.504053 0.255863 
7.176702 0.457130 0.277034 
7.179121 0.432424 0.255432 
7.179121 0.392357 0.259643 
7.181540 0.383685 0.244340 
7.183959 0.459316 0.258877 
7.186377 0.408838 0.249901 
7.188796 0.399477 0.258858 
7.191215 0.447338 0.242770 
7.191215 0.414892 0.246509 
7.191215 0.477023 0.247494 
7.193634 0.422039 0.249515 
7.193634 0.396851 0.249541 
7.196053 0.404303 0.256533 
7.198471 0.390198 0.255445 
7.197262 0.437316 0.242879 
7.198471 0.469876 0.251652 
7.200890 0.423559 0.249084 
7.203309 0.408818 0.253024 
7.208147 0.393777 0.243922 
7.206937 0.431800 0.237686 
7.206937 0.397045 0.250680 
7.211775 0.402668 0.258993 
7.215403 0.381702 0.253861 
7.216613 0.439149 0.254144 
7.222660 0.375288 0.246567 
7.225079 0.442638 0.261048 
7.233544 0.456838 0.237024 
7.239592 0.466557 0.243374 
7.244430 0.382440 0.247783 
7.254105 0.389109 0.267780 
7.263780 0.431001 0.252534 
7.271037 0.446577 0.261247 
7.278293 0.462107 0.265595 
7.286759 0.395781 0.257022 
7.295225 0.407592 0.252412 
7.309738 0.410025 0.267412 
7.318204 0.401014 0.239983 
7.324251 0.374238 0.275610 
7.336345 0.463122 0.271543 
7.346021 0.435971 0.266452 
7.354486 0.434159 0.247313 
7.362952 0.442814 0.255573 
7.373837 0.419683 0.262027 
7.381094 0.505637 0.254086 
7.387141 0.465893 0.241251 
7.396816 0.379019 0.257859 
7.405282 0.416762 0.264700 
7.410120 0.443067 0.262104 
7.418586 0.382032 0.261775 
7.425842 0.472824 0.262381 
7.433099 0.480637 0.240858 
7.440355 0.394613 0.261531 
7.446403 0.488686 0.263109 
7.454868 0.384015 0.244842 
7.460916 0.396170 0.239230 
7.465754 0.389071 0.247313 
7.471800 0.429735 0.242467 
7.482685 0.414172 0.251453 
7.486313 0.417677 0.255470 
7.489942 0.490172 0.257634 
7.498407 0.394866 0.253352 
7.503245 0.431118 0.249457 
7.511711 0.374763 0.243761 
7.515340 0.483059 0.253906 
7.525015 0.415437 0.248491 
7.525015 0.416586 0.248485 
7.531062 0.441410 0.241000 
7.540737 0.410706 0.242274 
7.543156 0.433535 0.260906 
7.547994 0.447416 0.274733 
7.554041 0.477355 0.267657 
7.558879 0.427806 0.259869 
7.564926 0.407105 0.249734 
7.568554 0.441293 0.280999 
7.572183 0.393699 0.255625 
7.573392 0.413880 0.237017 
7.579439 0.395995 0.243175 
7.585486 0.428332 0.251047 
7.591533 0.432112 0.307180 
7.590323 0.369692 0.265499 
7.601209 0.396598 0.270183 
7.601209 0.410375 0.242982 
7.603627 0.426929 0.257988 
7.613303 0.414114 0.227595 
7.614512 0.420306 0.254569 
7.618140 0.400975 0.262877 
7.619349 0.455374 0.268939 
7.624187 0.398582 0.295053 
7.626606 0.419605 0.261589 
7.633862 0.456389 0.267883 
7.639910 0.435562 0.257228 
7.641119 0.402240 0.260990 
7.645957 0.444491 0.246103 
7.649585 0.533821 0.261266 
7.655632 0.435211 0.245164 
7.660470 0.440279 0.251774 
7.665308 0.382324 0.257170 
7.667727 0.414425 0.235589 
7.674983 0.407553 0.252637 
7.684658 0.452448 0.246219 
7.694334 0.404128 0.246033 
7.701591 0.443106 0.244057 
7.708847 0.405646 0.266201 
7.719732 0.390568 0.243175 
7.728198 0.393972 0.271111 
7.737873 0.410414 0.260964 
7.746339 0.468841 0.257177 
7.756014 0.488296 0.255586 
7.766899 0.424474 0.250983 
7.774155 0.419215 0.255670 
7.782621 0.415691 0.268140 
7.793507 0.412575 0.244906 
7.804391 0.438973 0.255464 
7.814066 0.399419 0.243014 
7.824952 0.415282 0.258272 
7.832208 0.449152 0.257460 
7.844302 0.463453 0.254047 
7.853977 0.402065 0.246747 
7.860024 0.418242 0.246020 
7.872118 0.370527 0.243934 
7.880584 0.404809 0.251813 
7.891469 1.735012 0.239424 
7.901145 0.401676 0.261002 
7.908401 0.404303 0.281779 
7.918077 0.434081 0.237313 
7.926542 0.452507 0.254273 
7.933799 0.433749 0.248717 
7.942265 0.387651 0.253918 
7.953150 0.414678 0.251762 
7.961616 0.429365 0.247024 
7.971291 0.416976 0.241405 
7.976129 0.447708 0.252521 
7.984594 0.379952 0.257235 
7.990642 0.409499 0.249502 
8.000317 0.464585 0.235184 
8.007574 0.417930 0.244288 
8.017249 0.417365 0.261563 
8.025715 0.469602 0.244874 
8.030552 0.415710 0.254974 
8.040228 0.403952 0.262413 
8.046276 0.402824 0.262948 
8.052321 0.381818 0.260919 
8.060788 0.406794 0.266175 
8.066835 0.399146 0.258800 
8.071672 0.435328 0.263031 
8.080139 0.428293 0.251311 
8.086185 0.440981 0.269461 
8.093443 0.399535 0.241508 
8.101908 0.439382 0.256906 
8.105536 0.390198 0.247339 
8.116422 0.446811 0.255071 
8.122469 0.438388 0.248124 
8.127306 0.458184 0.252599 
8.133353 0.372276 0.259405 
8.140610 0.420579 0.248433 
8.144238 0.409461 0.242718 
8.149076 0.394808 0.259231 
8.156332 0.389187 0.253217 
8.166008 0.389829 0.255020 
8.170845 0.416450 0.273728 
8.175682 0.447552 0.253133 
8.180521 0.413646 0.252071 
8.186568 0.385862 0.241187 
8.193825 0.399166 0.247146 
8.202291 0.389168 0.245923 
8.208338 0.412789 0.260030 
8.208338 0.390704 0.247616 
8.215593 0.440143 0.249296 
8.221641 0.446148 0.260970 
8.227688 0.432853 0.244913 
8.236155 0.423598 0.257492 
8.243411 0.367652 0.255026 
8.250668 0.420579 0.245891 
8.253086 0.396481 0.266021 
8.265181 0.421845 0.242615 
8.268808 0.414328 0.247217 
8.280903 0.405665 0.251575 
8.291788 0.401248 0.268817 
8.300253 0.467338 0.259012 
8.306301 0.451882 0.249244 
8.317184 0.389848 0.245028 
8.325651 0.416723 0.252483 
8.332909 0.454594 0.238999 
8.342583 0.457287 0.251736 
8.348631 0.443204 0.254685 
8.359516 0.387826 0.255998 
8.366772 0.441644 0.253075 
8.380075 0.434256 0.262104 
8.386123 0.439441 0.273038 
8.392170 0.413899 0.246444 
8.407892 0.433749 0.247680 
8.412729 0.405412 0.260925 
8.423615 0.432093 0.243246 
8.434499 0.440806 0.248054 
8.442965 0.388915 0.244108 
8.452641 0.439110 0.268727 
8.461106 0.393894 0.255902 
8.470781 0.383043 0.266742 
8.476830 0.398913 0.260957 
8.487713 0.407611 0.253320 
8.492552 0.429988 0.276950 
8.504645 0.426461 0.245164 
8.513111 0.403933 0.253526 
8.519159 0.468431 0.248929 
8.525206 0.440962 0.251768 
8.539719 0.411991 0.239752 
8.545766 0.435737 0.253461 
8.553022 0.393660 0.250062 
8.562697 0.404439 0.254047 
8.566326 0.541245 0.257763 
8.580839 0.415691 0.267406 
8.589305 0.403894 0.256990 
8.596561 0.488432 0.252335 
8.597771 0.433808 0.256861 
8.609865 0.376609 0.241032 
8.621960 0.398796 0.250809 
8.621960 0.402279 0.247056 
8.636473 0.469485 0.252702 
