#sweep_run579_warmup_001.swp, buffers: 11,12
#DAC ch 5
#R[mOhm]
<2> 2597 0 1 0.1
9.321005 0.400204 0.248173 
9.333099 0.406850 0.263033 
9.330680 0.433973 0.252558 
9.337936 0.390595 0.248836 
9.342773 0.438598 0.251480 
9.345192 0.402950 0.248538 
9.345193 0.392882 0.262343 
9.345192 0.480922 0.258954 
9.346402 0.380178 0.245366 
9.354868 0.417935 0.263804 
9.360915 0.426454 0.250488 
9.362125 0.396751 0.252493 
9.363335 0.441444 0.251211 
9.370590 0.482019 0.250260 
9.369381 0.392467 0.258866 
9.374219 0.391040 0.234763 
9.379057 0.428975 0.253872 
9.383894 0.382584 0.274443 
9.386313 0.477047 0.253588 
9.388732 0.401882 0.252607 
9.393570 0.425960 0.257672 
9.397198 0.454823 0.249096 
9.395988 0.463117 0.245399 
9.403245 0.380953 0.267840 
9.403245 0.395331 0.238732 
9.410501 0.476305 0.249084 
9.410501 0.378001 0.232652 
9.416549 0.417409 0.246096 
9.420177 0.424691 0.245967 
9.422596 0.389775 0.242482 
9.426224 0.372555 0.282485 
9.423805 0.426099 0.307367 
9.429852 0.493042 0.289714 
9.431063 0.410889 0.277091 
9.434690 0.560774 0.243820 
9.438318 0.343045 0.259916 
9.440737 0.461026 0.237351 
9.440737 0.731702 0.257163 
9.444365 0.451922 0.244282 
9.447994 0.421187 0.251824 
9.451622 0.447733 0.251906 
9.454041 0.458670 0.270613 
9.458879 0.402583 0.264845 
9.460088 0.481335 0.262619 
9.463717 0.389664 0.271725 
9.464925 0.426466 0.232174 
9.467344 0.379471 0.245927 
9.469763 0.427521 0.238148 
9.474601 0.419970 0.248654 
9.477020 0.408869 0.251385 
9.469763 0.452346 0.250859 
9.479439 0.405283 0.248938 
9.481857 0.444591 0.244892 
9.483067 0.435516 0.244860 
9.486695 0.420294 0.257239 
9.486695 0.396890 0.245666 
9.490323 0.398609 0.247219 
9.490324 0.427574 0.268577 
9.496370 0.408548 0.252446 
9.496370 0.431973 0.250142 
9.495161 0.418402 0.248003 
9.504837 0.409341 0.252259 
9.503627 0.394813 0.234609 
9.503627 0.380319 0.235560 
9.510883 0.416564 0.251840 
9.508465 0.490035 0.267900 
9.514511 0.484112 0.265862 
9.515720 0.439136 0.266317 
9.516931 0.412500 0.239543 
9.520559 0.393777 0.256470 
9.520559 0.378332 0.280841 
9.525396 0.441015 0.239264 
9.525396 0.408229 0.255453 
9.525396 0.397288 0.248460 
9.527816 0.416365 0.235222 
9.531445 0.385889 0.256965 
9.532654 0.445410 0.248330 
9.530235 0.440547 0.242224 
9.533863 0.401851 0.253505 
9.538700 0.399146 0.271274 
9.541119 0.404758 0.257870 
9.543537 0.420087 0.251777 
9.538700 0.392119 0.253081 
9.544747 0.402902 0.243910 
9.547167 0.415834 0.275590 
9.545957 0.392537 0.243913 
9.548376 0.392352 0.244392 
9.553213 0.408492 0.254405 
9.552004 0.379211 0.265129 
9.552004 0.506969 0.249546 
9.552004 0.370877 0.252739 
9.554422 0.397057 0.253200 
9.559260 0.419315 0.246156 
9.556842 0.389520 0.277736 
9.560470 0.408242 0.249665 
9.561679 0.426077 0.258052 
9.560470 0.390009 0.263993 
9.559260 0.431966 0.260830 
9.560470 0.400910 0.230532 
9.564097 0.411580 0.254904 
9.564098 0.416518 0.259633 
9.562888 0.414104 0.243480 
9.564098 0.381024 0.248310 
9.564098 0.422753 0.250997 
9.570145 0.443296 0.253083 
9.567726 0.400761 0.245096 
9.572564 0.404308 0.254092 
9.566517 0.476830 0.397831 
9.566517 0.437248 0.247853 
9.565308 0.403894 0.263945 
9.566517 0.409813 0.256984 
9.566517 0.409120 0.249403 
9.567726 0.393529 0.260032 
9.568935 0.375608 0.253513 
9.567726 0.422171 0.259482 
9.567726 0.388774 0.244243 
9.565308 0.909163 0.513437 
9.562888 0.450388 0.252039 
9.566517 0.384052 0.256376 
9.565308 0.409891 0.248349 
9.562888 0.486908 0.260721 
9.560470 0.389362 0.409155 
9.561679 0.578529 0.261866 
9.559260 0.482873 0.248033 
9.556842 0.397653 0.258177 
9.558051 0.418770 0.272335 
9.555633 0.415121 0.259506 
9.554422 0.585336 0.265742 
9.553213 0.444959 0.251511 
9.554422 0.400335 0.258722 
9.550795 0.437353 0.443547 
9.548376 0.481782 0.267461 
9.552004 0.419700 0.256712 
9.548376 0.441868 0.251773 
9.549585 0.438637 0.236565 
9.543537 0.412566 0.237878 
9.542328 0.396238 0.251589 
9.543537 0.442777 0.245016 
9.539909 0.460250 0.240614 
9.536282 0.436351 0.245884 
9.537491 0.445685 0.253565 
9.538700 0.422346 0.245008 
9.535072 0.409088 0.249562 
9.536282 0.406738 0.252466 
9.532654 0.415880 0.254255 
9.530235 0.404269 0.240573 
9.524187 0.418553 0.244345 
9.524187 0.403378 0.231252 
9.522978 0.458670 0.271927 
9.521769 0.376111 0.268396 
9.518140 0.412921 0.254055 
9.515721 0.417874 0.257169 
9.515720 0.437148 0.269265 
9.513302 0.413709 0.246475 
9.506046 0.390033 0.246490 
9.509674 0.417932 0.265279 
9.499999 0.385811 0.251832 
9.502419 0.410921 0.238606 
9.501208 0.377688 0.250100 
9.498790 0.439765 0.253223 
9.495161 0.424506 0.250046 
9.496370 0.417519 0.247445 
9.493952 0.432027 0.264744 
9.489114 0.446760 0.248547 
9.489114 0.385974 0.245900 
9.485485 0.385563 0.234419 
9.485486 0.381663 0.252689 
9.478230 0.398511 0.249088 
9.483067 0.407533 0.264747 
9.479439 0.450910 0.255424 
9.480648 0.410320 0.250181 
9.477020 0.427981 0.244840 
9.473392 0.417779 0.249674 
9.470972 0.414968 0.271093 
9.472181 0.416504 0.252017 
9.466135 0.421791 0.255658 
9.464925 0.395579 0.241884 
9.463717 0.418899 0.245307 
9.458879 0.444052 0.244117 
9.461298 0.449927 0.258750 
9.457669 0.453999 0.283120 
9.457669 0.444174 0.267031 
9.451622 0.394390 0.252832 
9.449203 0.509974 0.275664 
9.446784 0.449405 0.265120 
9.445575 0.433121 0.265679 
9.445575 0.408327 0.244514 
9.445575 0.399005 0.257174 
9.440737 0.499335 0.276957 
9.440737 0.452755 0.248824 
9.439528 0.472795 0.269856 
9.439528 0.419318 0.430831 
9.432272 0.409461 0.246860 
9.431062 0.438237 0.256613 
9.433481 0.431323 0.264605 
9.429852 0.425361 0.249458 
9.425014 0.424606 0.260091 
9.421386 0.492297 0.266829 
9.422596 0.456087 0.270876 
9.423805 0.492175 0.291759 
9.417758 0.464742 0.263106 
9.416549 0.402471 0.233272 
9.415339 0.425254 0.250017 
9.415339 0.422526 0.243738 
9.410501 0.459906 0.253473 
9.410501 0.420021 0.236203 
9.408083 0.392267 0.240953 
9.405664 0.387172 0.257565 
9.403245 0.419561 0.263755 
9.403245 0.383753 0.250753 
9.402035 0.440596 0.265066 
9.395988 0.448598 0.241203 
9.398407 0.437752 0.247729 
9.392360 0.392882 0.240996 
9.392360 0.426086 0.262371 
9.392360 0.457413 0.236966 
9.386313 0.446051 0.246676 
9.385103 0.434682 0.313195 
9.383894 0.523717 0.245958 
9.381475 0.503791 0.270622 
9.381475 0.436261 0.255521 
9.381475 0.398580 0.235802 
9.373010 0.471775 0.277221 
9.375428 0.430599 0.276776 
9.375429 0.523634 0.242950 
9.370590 0.445651 0.257430 
9.371799 0.402658 0.243290 
9.370590 0.382907 0.237453 
9.363335 0.486622 0.246905 
9.366962 0.587567 0.263308 
9.363335 0.501024 0.253953 
9.358497 0.434707 0.259007 
9.358497 0.429832 0.248043 
9.362125 0.425146 0.268398 
9.356077 0.394485 0.250898 
9.358497 0.422475 0.257329 
9.352449 0.420703 0.242783 
9.352449 0.483164 0.264311 
9.352449 0.472751 0.261631 
9.350031 0.451817 0.251231 
9.351240 0.398232 0.249615 
9.345192 0.477265 0.271958 
9.346401 0.408222 0.265627 
9.345192 0.411702 0.249049 
9.345193 0.398210 0.244377 
9.341564 0.447282 0.251795 
9.341565 0.442646 0.244821 
9.343983 0.419091 0.251056 
9.339146 0.524686 0.284393 
9.339146 0.407473 0.249013 
9.334309 0.424489 0.533356 
9.339146 1.049344 0.266518 
9.329471 0.556345 0.238528 
9.334309 0.385913 0.249797 
9.331890 0.479367 0.246841 
9.327051 0.418636 0.257223 
9.322213 0.426576 0.235925 
9.324633 0.456957 0.258749 
9.323423 0.397967 0.245166 
9.322214 0.406397 0.255912 
9.319795 0.458111 0.244766 
9.318585 0.380397 0.251446 
9.317376 0.412970 0.249309 
9.316168 0.402610 0.249906 
9.314958 0.413624 0.243801 
9.312538 0.369957 0.259903 
9.307701 0.374022 0.248489 
9.308910 0.394789 0.264478 
9.307701 0.409261 0.249837 
9.307701 0.431467 0.240065 
9.305282 0.406572 0.247320 
9.302863 0.402233 0.248832 
9.302863 0.421630 0.253250 
9.302863 0.427141 0.238318 
9.295607 0.445636 0.255647 
9.301653 0.411553 0.258404 
9.298025 0.431196 0.256075 
9.298025 0.401503 0.256865 
9.294397 0.451468 0.244728 
9.295607 0.424214 0.286936 
9.295607 0.480485 0.254584 
9.291979 0.367676 0.259928 
9.291979 0.437981 0.237826 
9.288351 0.449432 0.250228 
9.291979 0.464551 0.252696 
9.289560 0.422244 0.255459 
9.287141 0.389299 0.258487 
9.283512 0.403181 0.252618 
9.285932 0.449522 0.474299 
9.282303 0.433279 0.253975 
9.284721 0.414622 0.241203 
9.283512 0.433308 0.248822 
9.279884 0.423255 0.244551 
9.282303 0.427343 0.242829 
9.275046 0.437233 0.254191 
9.277466 0.427192 0.242779 
9.275046 0.391414 0.242840 
9.273837 0.399292 0.254633 
9.275046 0.426841 0.255060 
9.272628 0.391815 0.236129 
9.271419 0.392258 0.253584 
9.267790 0.464688 0.251862 
9.268999 0.403833 0.245986 
9.266581 0.397648 0.266933 
9.265371 0.445573 0.261988 
9.266581 0.414851 0.263859 
9.266581 0.402352 0.275338 
9.264162 0.419135 0.251919 
9.264162 0.423968 0.264057 
9.262953 0.423084 0.278151 
9.264162 0.456272 0.241028 
9.262953 0.407684 0.268167 
9.260533 0.463775 0.246283 
9.256905 0.689192 0.234001 
9.255695 0.407147 0.248582 
9.254486 0.386339 0.277568 
9.254486 0.400229 0.248473 
9.254486 0.456943 0.252258 
9.253277 0.428135 0.250391 
9.253277 0.428890 0.263159 
9.248440 0.404780 0.257146 
9.247231 0.432490 0.241194 
9.247231 0.465366 0.240954 
9.249649 0.396894 0.263331 
9.246021 0.463512 0.254177 
9.246021 0.430181 0.240255 
9.249649 0.417850 0.265358 
9.246021 0.469651 0.255387 
9.241183 0.476205 0.264040 
9.238764 0.395039 0.234994 
9.238764 0.424706 0.258692 
9.241182 0.399372 0.260479 
9.237555 0.377433 0.276630 
9.236345 0.448147 0.260126 
9.236345 0.412609 0.269983 
9.237555 0.466237 0.249921 
9.232717 0.387026 0.243108 
9.235136 0.450727 0.255446 
9.236345 0.417365 0.243814 
9.230297 0.405658 0.252315 
9.229088 0.392095 0.262933 
9.227879 0.384696 0.250435 
9.231507 0.390398 0.239065 
9.227879 0.415708 0.244152 
9.230297 0.378689 0.254028 
9.226669 0.407694 0.254289 
9.230297 0.411965 0.267699 
9.223042 0.424267 0.245159 
9.221832 0.453592 0.253983 
9.223042 0.401649 0.244023 
9.225460 0.418344 0.250208 
9.223042 0.489009 0.261275 
9.223042 0.412490 0.247503 
9.226669 0.430677 0.280411 
9.215785 0.399932 0.241051 
9.219414 0.406916 0.242514 
9.220623 0.452497 0.250266 
9.215785 0.511994 0.247245 
9.219414 0.413639 0.250833 
9.215785 0.450585 0.253381 
9.216994 0.421640 0.257409 
9.214576 0.460116 0.240440 
9.208529 0.409772 0.252772 
9.214575 0.424640 0.241721 
9.209738 0.438837 0.260610 
9.208529 0.398397 0.263766 
9.210947 0.597644 0.295505 
9.210947 0.558583 0.247770 
9.210947 0.391297 0.258230 
9.208529 0.460516 0.240833 
9.206110 0.525704 0.282717 
9.206110 0.420627 0.301822 
9.207319 0.583856 0.253854 
9.202481 0.437258 0.249396 
9.206110 0.397249 0.270502 
9.207319 0.463170 0.258040 
9.201272 0.429491 0.245505 
9.201272 0.441985 0.265618 
9.197644 0.485628 0.250664 
9.196435 0.536553 0.291079 
9.197644 0.424659 0.250567 
9.196435 0.460253 0.275587 
9.196434 0.415467 0.242026 
9.196435 0.471350 0.254958 
9.196435 0.418164 0.265554 
9.196435 0.385279 0.251910 
9.191597 0.403145 0.256259 
9.191597 0.417833 0.256806 
9.194016 0.441010 0.256826 
9.194016 0.381741 0.270779 
9.191597 0.422195 0.261878 
9.190388 0.425137 0.251398 
9.192806 0.437199 0.252740 
9.189178 0.474709 0.245830 
9.187968 0.399331 0.257727 
9.187968 0.429735 0.246934 
9.187968 0.470774 0.256868 
9.185549 0.425439 0.253262 
9.186758 0.446324 0.241862 
9.186758 0.448771 0.259753 
9.181921 0.421913 0.258912 
9.184340 0.426335 0.264639 
9.179502 0.382576 0.265444 
9.184340 0.412059 0.249322 
9.183130 0.411729 0.261173 
9.186759 0.355350 0.250757 
9.183130 0.426101 0.245119 
9.183130 0.456535 0.265038 
9.177083 0.423432 0.258652 
9.180712 0.408799 0.250181 
9.178292 0.435727 0.240344 
9.175875 0.436478 0.245807 
9.174664 0.436907 0.247175 
9.175874 0.384550 0.278016 
9.174664 0.484397 0.257959 
9.175874 0.432872 0.264813 
9.171037 0.408302 0.252507 
9.175875 0.449537 0.251201 
9.173455 0.464390 0.257351 
9.171037 0.458501 0.248021 
9.171037 0.422020 0.256588 
9.173455 0.421981 0.244581 
9.169827 0.407825 0.253619 
9.167408 0.394215 0.247210 
9.169827 0.509730 0.254405 
9.172247 0.441478 0.276212 
9.167408 0.391015 0.272315 
9.166199 0.420058 0.244435 
9.167408 0.508316 0.238438 
9.168617 0.394307 0.242152 
9.166199 0.377081 0.248660 
9.164989 0.473063 0.250431 
9.164989 0.407412 0.238455 
9.163780 0.406093 0.262172 
9.163780 0.387622 0.248752 
9.164989 0.384846 0.264091 
9.162571 0.399151 0.255147 
9.162571 0.415871 0.235642 
9.162571 0.477594 0.268239 
9.166199 0.388473 0.253640 
9.162571 0.438978 0.257888 
9.162571 0.442999 0.243658 
9.160151 0.433423 0.260270 
9.160151 0.342701 0.282168 
9.158941 0.373767 0.246190 
9.154104 0.403602 0.262510 
9.158941 0.415885 0.247867 
9.157732 0.400654 0.245761 
9.156523 0.405933 0.244853 
9.157732 0.394886 0.254199 
9.156523 0.429433 0.256769 
9.157732 0.417506 0.250952 
9.154104 0.429827 0.251916 
9.155313 0.454433 0.250097 
9.156523 0.458428 0.257531 
9.150476 0.391538 0.268347 
9.151686 0.432122 0.250018 
9.154104 0.414671 0.255438 
9.150476 0.418505 0.260820 
9.152895 0.418631 0.246520 
9.149267 0.428196 0.249773 
9.148058 0.409743 0.247127 
9.150476 0.373886 0.259976 
9.146849 0.423293 0.261481 
9.149267 0.426783 0.252304 
9.150476 0.473798 0.247272 
9.148058 0.415971 0.271175 
9.148058 0.457226 0.252827 
9.149267 0.407838 0.258394 
9.145638 0.371771 0.264362 
9.148057 0.442105 0.240653 
9.148058 0.381400 0.261161 
9.148058 0.431571 0.255451 
9.146849 0.409645 0.253167 
9.146849 0.409307 0.253849 
9.144429 0.396634 0.253328 
9.142010 0.397466 0.255418 
9.143219 0.494926 0.254186 
9.139591 0.447257 0.258913 
9.142010 0.431447 0.258129 
9.143219 0.400812 0.254756 
9.140800 0.431457 0.253786 
9.138382 0.562630 0.256010 
9.138382 0.441634 0.242901 
9.140800 0.440123 0.254395 
9.139591 0.567005 0.250718 
9.140800 0.408329 0.237109 
9.138382 0.487685 0.255260 
9.138382 0.422264 0.270318 
9.135963 0.512601 0.271515 
9.135963 0.539360 0.292805 
9.133545 0.544047 0.262921 
9.137173 0.551990 0.317038 
9.135963 0.422074 0.278425 
9.134754 0.539325 0.338822 
9.135963 0.560029 0.264077 
9.133545 0.618078 0.280833 
9.135963 0.651339 0.319286 
9.129915 0.708304 0.314220 
9.133545 0.517723 0.290954 
9.132335 0.501136 0.313205 
9.133544 0.650371 0.288763 
9.131125 0.543984 0.304789 
9.128707 0.523812 0.312360 
9.131125 0.575602 0.307994 
9.128706 0.648743 0.293109 
9.129915 0.507818 0.279643 
9.128707 0.508519 0.314266 
9.129916 0.477873 0.296439 
9.128707 0.460809 0.311772 
9.128707 0.438483 0.276370 
9.127497 0.415026 0.261586 
9.125078 0.411327 0.249508 
9.127497 0.505556 0.246872 
9.128707 0.460038 0.258813 
9.126288 0.412016 0.263867 
9.122660 0.544474 0.257188 
9.122660 0.428322 0.253078 
9.123869 0.487147 0.243739 
9.120241 0.523543 0.278783 
9.120241 0.413605 0.250034 
9.115402 0.462817 0.247191 
9.119032 0.393223 0.257737 
9.117822 0.458306 0.271914 
9.119031 0.432648 0.258778 
9.117822 0.400180 0.244921 
9.119032 0.489624 0.247440 
9.116612 0.457055 0.251543 
9.114193 0.430541 0.254252 
9.111774 0.404600 0.249576 
9.114193 0.435408 0.265309 
9.111774 0.425480 0.234385 
9.111774 0.388854 0.247863 
9.105728 0.421144 0.245789 
9.109356 0.402863 0.232259 
9.105728 0.398541 0.263660 
9.111774 0.429433 0.251592 
9.106937 0.403322 0.249438 
9.104518 0.426888 0.245152 
9.102099 0.470881 0.251758 
9.104518 0.419814 0.278626 
9.098471 0.377297 0.245531 
9.096052 0.453521 0.265359 
9.097261 0.413050 0.271356 
9.098471 0.424767 0.257783 
9.097261 0.404916 0.251865 
9.088796 0.442409 0.242532 
9.090006 0.454604 0.287797 
9.088796 0.409765 0.273290 
9.085167 0.432819 0.264226 
9.082748 0.453526 0.254171 
9.085167 0.510561 0.255032 
9.082748 0.421153 0.249006 
9.076702 0.435679 0.248092 
9.081539 0.391083 0.259412 
9.079121 0.462975 0.249393 
9.075493 0.430212 0.250783 
9.075493 0.452936 0.247300 
9.070654 0.392299 0.242766 
9.070654 0.420968 0.256697 
9.067026 0.445124 0.258928 
9.069445 0.395255 0.237622 
9.062188 0.429472 0.256810 
9.062188 0.491315 0.240907 
9.062188 0.439597 0.259965 
9.062188 0.473254 0.260255 
9.062188 0.430699 0.260864 
9.059769 0.469886 0.245453 
9.056141 0.423306 0.261151 
9.056141 0.467143 0.246454 
9.051304 0.381187 0.274565 
9.053723 0.472190 0.277170 
9.051304 0.445290 0.263592 
9.050095 0.387933 0.247535 
9.048885 0.370255 0.265399 
9.044047 0.376658 0.254228 
9.045257 0.401345 0.254746 
9.044047 0.516172 0.250947 
9.038000 0.445602 0.259196 
9.039209 0.430037 0.263853 
9.033163 0.420248 0.248018 
9.034371 0.396189 0.241283 
9.033163 0.422098 0.241405 
9.031953 0.458018 0.244015 
9.028325 0.397288 0.236943 
9.027115 0.417502 0.266407 
9.030745 0.442317 0.258600 
9.027115 0.381818 0.250577 
9.027115 0.365282 0.261260 
9.022278 0.429287 0.248852 
9.021069 0.421426 0.251469 
9.023487 0.406444 0.256014 
9.013811 0.388312 0.260758 
9.013811 0.384880 0.245395 
9.015021 0.441546 0.258056 
9.013811 0.415214 0.243732 
9.015021 0.405295 0.246258 
9.010183 0.448021 0.252898 
9.010183 0.416557 0.249734 
9.007765 0.428985 0.251601 
9.006556 0.386718 0.265476 
9.002928 0.391035 0.245511 
9.002927 0.395664 0.249441 
9.000508 0.367574 0.254743 
8.998089 0.421007 0.256507 
8.999298 0.431245 0.246148 
8.999298 0.747706 0.259637 
8.996880 0.491159 0.254479 
8.995670 0.405899 0.239304 
8.995670 0.403310 0.265773 
8.995670 0.378883 0.245968 
8.996880 0.396413 0.244356 
8.989624 0.473664 0.264510 
8.988413 0.432151 0.245849 
8.990832 0.373685 0.260667 
8.987205 0.425039 0.268459 
8.982367 0.408429 0.266130 
8.982367 0.412011 0.274201 
8.982367 0.417940 0.251533 
8.979948 0.456214 0.260252 
8.977530 0.453853 0.244314 
8.978739 0.439392 0.256591 
8.978739 0.418797 0.260490 
8.976319 0.418904 0.258426 
8.976319 0.423861 0.249911 
8.975110 0.433038 0.253510 
8.973901 0.409227 0.251997 
8.971481 0.420579 0.248897 
8.967854 0.386893 0.251218 
8.967854 0.381255 0.245923 
8.965435 0.404925 0.247918 
8.970272 0.494100 0.264516 
8.967854 0.426072 0.258542 
8.965435 0.391968 0.249776 
8.966644 0.418563 0.251102 
8.961806 0.418057 0.257560 
8.963016 0.407757 0.246782 
8.960597 0.436225 0.243329 
8.960597 0.506517 0.247449 
8.959388 0.420345 0.250950 
8.959388 0.502302 0.275171 
8.956969 0.444773 0.262899 
8.955760 0.424289 0.254295 
8.954550 0.428955 0.256352 
8.954551 0.451922 0.247442 
8.953341 0.442063 0.250191 
8.950922 0.459257 0.265860 
8.952131 0.424864 0.241933 
8.949713 0.423539 0.256874 
8.952131 0.439772 0.243735 
8.947293 0.414347 0.242564 
8.948503 0.435932 0.244662 
8.946084 0.407942 0.267238 
8.946084 0.373519 0.260519 
8.947293 0.467123 0.248009 
8.947293 0.396928 0.254060 
8.946084 0.412050 0.253101 
8.944874 0.406327 0.243922 
8.943665 0.437745 0.276937 
8.941246 0.378922 0.260597 
8.940037 0.377872 0.244758 
8.942455 0.359437 0.259186 
8.943665 0.413432 0.272625 
8.940037 0.456448 0.248858 
8.937617 0.461385 0.262825 
8.940037 0.398718 0.244076 
8.936409 0.435776 0.245215 
8.933990 0.461463 0.255548 
8.935200 0.406813 0.244185 
8.931572 0.424533 0.248523 
8.931572 0.404906 0.244147 
8.929152 0.390237 0.271530 
8.927943 0.411368 0.253120 
8.926733 0.385318 0.247841 
8.926733 0.434529 0.248375 
8.925524 0.386582 0.256494 
8.924314 0.422449 0.243773 
8.921896 0.408371 0.249212 
8.925524 0.411252 0.259289 
8.919477 0.431430 0.244958 
8.915848 0.452799 0.273811 
8.915848 0.428371 0.254311 
8.913430 0.415243 0.242396 
8.909801 0.403466 0.259804 
8.913429 0.365107 0.252193 
8.909801 0.439987 0.254859 
8.907383 0.485384 0.286467 
8.907383 0.425526 0.266581 
8.908592 0.485130 0.274946 
8.906174 0.480539 0.307186 
8.902545 0.483196 0.269861 
8.903754 0.435133 0.260242 
8.898916 0.435698 0.271929 
8.901335 0.422429 0.247912 
8.901335 0.430105 0.253564 
8.898916 0.387632 0.263070 
8.897707 0.495469 0.247313 
8.897707 0.448118 0.252553 
8.895288 0.382674 0.264249 
8.891661 0.372762 0.240865 
8.894079 0.430534 0.251169 
8.894079 0.400975 0.252302 
8.890450 0.435445 0.257396 
8.891661 0.462282 0.253603 
8.885612 0.388954 0.252798 
8.884403 0.476613 0.268778 
8.888032 0.404517 0.244127 
8.885613 0.405198 0.248865 
8.883194 0.418027 0.258136 
8.879566 0.413841 0.253101 
8.879566 0.402843 0.249817 
8.879566 0.417755 0.254408 
8.877148 0.442034 0.257531 
8.874728 0.385745 0.239617 
8.878357 0.416742 0.262258 
8.874728 0.423422 0.249618 
8.872309 0.405393 0.237944 
8.871099 0.413860 0.262175 
8.871099 0.479543 0.266510 
8.866262 0.471379 0.238709 
8.862635 0.487182 0.264590 
8.863844 0.472160 0.255071 
8.863844 0.435503 0.271124 
8.860215 0.401442 0.247288 
8.860215 0.511036 0.255985 
8.860215 0.409052 0.260539 
8.857797 0.421455 0.253964 
8.856587 0.477121 0.247075 
8.852959 0.384501 0.239501 
8.850540 0.454223 0.252737 
8.854168 0.411417 0.258098 
8.852959 0.400284 0.256559 
8.849331 0.458711 0.242161 
8.848122 0.414902 0.244047 
8.844493 0.369041 0.252888 
8.848122 0.447825 0.265293 
8.848121 0.451385 0.237310 
8.842073 0.445680 0.248253 
8.843284 0.485921 0.256050 
8.842073 0.422634 0.247387 
8.843284 0.455111 0.251601 
8.837236 0.379311 0.271923 
8.838446 0.366739 0.250081 
8.838446 0.412575 0.253712 
8.833609 0.437560 0.284939 
8.834818 0.458789 0.254636 
8.833609 0.424922 0.272123 
8.832399 0.466225 0.240791 
8.833609 0.425205 0.251810 
8.831189 0.446636 0.252541 
8.831190 0.407242 0.258993 
8.828770 0.424143 0.246229 
8.831189 0.468548 0.244414 
8.828770 0.429111 0.233521 
8.828770 0.436497 0.263998 
8.823933 0.418066 0.258861 
8.822723 0.396053 0.254504 
8.822723 0.414425 0.265483 
8.821513 0.474845 0.240070 
8.823933 0.451424 0.245759 
8.819095 0.379466 0.262519 
8.821514 0.441663 0.265901 
8.819095 0.449786 0.261350 
8.815467 0.459492 0.241984 
8.819095 0.385259 0.233003 
8.814258 0.439246 0.257686 
8.814258 0.443301 0.248778 
8.811839 0.439607 0.263505 
8.817885 0.386300 0.244646 
8.813047 0.427786 0.255776 
8.808210 0.406356 0.251968 
8.808210 0.399059 0.253387 
8.805792 0.390510 0.258738 
8.810629 0.456038 0.288183 
8.808210 0.436605 0.240862 
8.807001 0.425000 0.247812 
8.808210 0.420209 0.251871 
8.805792 0.454594 0.259821 
8.805792 0.470647 0.253197 
8.802162 0.448849 0.235528 
8.802163 0.402717 0.250735 
8.802163 0.378572 0.267296 
8.803372 0.450059 0.250245 
8.799744 0.401997 0.247757 
8.799744 0.442161 0.253844 
8.799744 0.495742 0.232675 
8.797325 0.437365 0.247915 
8.797325 0.430027 0.253439 
8.794907 0.456311 0.251498 
8.791279 0.378368 0.244275 
8.791279 0.426666 0.270592 
8.791279 0.475470 0.257917 
8.791279 0.416742 0.255020 
8.788860 0.386970 0.256890 
8.790070 0.405626 0.281031 
8.786441 0.373782 0.256381 
8.785231 0.371538 0.241495 
8.786441 0.432327 0.252834 
8.782812 0.412429 0.257364 
8.780394 0.390296 0.241367 
8.780394 0.446841 0.256011 
8.781603 0.373558 0.274346 
8.780394 0.443516 0.250789 
8.776765 0.454077 0.254240 
8.777974 0.429998 0.257859 
8.773137 0.419839 0.242992 
8.776765 0.433320 0.249817 
8.768299 0.455950 0.250313 
8.773137 0.437940 0.261914 
8.770718 0.423530 0.264668 
8.767090 0.431128 0.259164 
8.763462 0.437297 0.242634 
8.763462 0.420423 0.265199 
8.767090 0.378028 0.247835 
8.763462 0.474279 0.252135 
8.763462 0.387233 0.246741 
8.761044 0.454448 0.265831 
8.759833 0.444257 0.264594 
8.756205 0.436731 0.236200 
8.752577 0.398670 0.254163 
8.754995 0.373393 0.263044 
8.752577 0.415574 0.268446 
8.747740 0.429131 0.254218 
8.748949 0.399068 0.243104 
8.748948 0.388905 0.251942 
8.748948 0.402542 0.237992 
8.746530 0.380244 0.254083 
8.746530 0.428254 0.235251 
8.741692 0.488892 0.242181 
8.741692 0.424494 0.248955 
8.742902 0.489292 0.247877 
8.739273 0.385930 0.246367 
8.740482 0.421757 0.247027 
8.740482 0.411144 0.252966 
8.738064 0.396082 0.245897 
8.736855 0.434763 0.253519 
8.739273 0.438612 0.246171 
8.730807 0.426121 0.241882 
8.736855 0.459131 0.234515 
8.730807 0.414114 0.262403 
8.728388 0.473556 0.251984 
8.727179 0.456731 0.256887 
8.730807 0.418972 0.278975 
8.724760 0.389839 0.254350 
8.727179 0.386270 0.266330 
8.727179 0.397055 0.237770 
8.721132 0.434129 0.248140 
8.723551 0.449766 0.265644 
8.723551 0.442677 0.256510 
8.721132 0.446587 0.270170 
8.717505 0.364292 0.265412 
8.716294 0.422341 0.240807 
8.713876 0.412089 0.241569 
8.713876 0.417463 0.253423 
8.713876 0.472619 0.307461 
8.712667 0.492058 0.259350 
8.712667 0.605564 0.308587 
8.715085 0.511632 0.291782 
8.707829 0.431547 0.253551 
8.709038 0.506595 0.264877 
8.710247 0.473215 0.247243 
8.707829 0.430777 0.277566 
8.707829 0.458887 0.264739 
8.705409 0.434870 0.261044 
8.702990 0.404809 0.261537 
8.704200 0.461902 0.265972 
8.705409 0.422877 0.245923 
8.702990 0.380720 0.256365 
8.701780 0.482404 0.286512 
8.702990 0.431976 0.268070 
8.699362 0.402435 0.253255 
8.695734 0.400586 0.245711 
8.695734 0.371644 0.264713 
8.695734 0.404984 0.244925 
8.694525 0.409266 0.276293 
8.694525 0.378494 0.258410 
8.692106 0.460731 0.256172 
8.694525 0.458438 0.258355 
8.693316 0.392688 0.258532 
8.690897 0.428196 0.245608 
8.688478 0.410969 0.277685 
8.687268 0.477619 0.247725 
8.689688 0.378980 0.246715 
8.688478 0.428157 0.234203 
8.686059 0.442502 0.248820 
8.687268 0.425994 0.279922 
8.686059 0.470579 0.265035 
8.682430 0.422468 0.254292 
8.682430 0.433087 0.263077 
8.684849 0.431450 0.242300 
8.682430 0.480715 0.244687 
8.680012 0.399068 0.256571 
8.681221 0.428196 0.247346 
8.677592 0.390879 0.272020 
8.678802 0.421845 0.274720 
8.677592 0.435464 0.248440 
8.677592 0.438544 0.241109 
8.677592 0.457052 0.239932 
8.675174 0.426832 0.258259 
8.676383 0.448137 0.249605 
8.677593 0.425254 0.274669 
8.673965 0.461365 0.251536 
8.671546 0.434509 0.248176 
8.673965 0.406093 0.237487 
8.672755 0.389246 0.248665 
8.671546 0.554005 0.269738 
8.666708 0.430845 0.261988 
8.672755 0.436809 0.247513 
8.667917 0.418514 0.253165 
8.666708 0.433418 0.255483 
8.669127 0.413296 0.267013 
8.666708 0.425371 0.254530 
8.667917 0.428196 0.241746 
8.665499 0.497306 0.269655 
8.669127 0.441371 0.248247 
8.664289 0.432541 0.247996 
8.666708 0.444608 0.268514 
8.665499 0.424163 0.247275 
8.660661 0.437628 0.250249 
8.660661 0.412965 0.251987 
8.658241 0.429209 0.281302 
8.660661 0.438915 0.249006 
8.661870 0.416625 0.248620 
8.658241 0.408156 0.282385 
8.658241 0.428001 0.239906 
8.657032 0.432171 0.254974 
8.654613 0.458965 0.246200 
8.657032 0.409967 0.243741 
8.652195 0.449269 0.242506 
8.652195 0.459765 0.250320 
8.654613 0.499203 0.275945 
8.650986 0.466088 0.266897 
8.650986 0.424396 0.279052 
8.652195 0.443789 0.262123 
8.653404 0.416314 0.246213 
8.652195 0.446187 0.262387 
8.649776 0.417482 0.248015 
8.650986 0.401617 0.249328 
8.647358 0.442034 0.247294 
8.647358 0.397804 0.255174 
8.644939 0.387126 0.254678 
8.644939 0.444803 0.272761 
8.642520 0.399672 0.263495 
8.637682 0.465893 0.251832 
8.643729 0.424728 0.242036 
8.637682 0.458984 0.245357 
8.638891 0.475050 0.258008 
8.636473 0.409986 0.258136 
8.637682 0.406054 0.228527 
8.635263 0.378708 0.249393 
8.635262 0.427592 0.252038 
8.637682 0.390918 0.252122 
8.630424 0.484700 0.264661 
8.628006 0.433535 0.232836 
8.629216 0.389343 0.249463 
8.629216 0.387340 0.255026 
8.626797 0.387009 0.262368 
8.625587 0.394944 0.263109 
8.628006 0.415029 0.268147 
8.623169 0.401929 0.250455 
8.623169 0.480617 0.260326 
8.619541 0.382149 0.243226 
8.615912 0.401189 0.257615 
8.620750 0.436751 0.268482 
8.618331 0.445310 0.256784 
8.615912 0.428429 0.243272 
8.613493 0.413705 0.263573 
8.614702 0.427377 0.244951 
8.609865 0.402668 0.241476 
8.611074 0.426656 0.264358 
8.613493 0.473859 0.253043 
8.611074 0.383432 0.261254 
8.608656 0.449971 0.249927 
8.603818 0.406872 0.240524 
8.605028 0.422078 0.267303 
8.606236 0.469798 0.273972 
8.603818 0.449873 0.267470 
8.606237 0.460038 0.272116 
8.607447 0.381916 0.255258 
8.597771 0.406054 0.261582 
8.598981 0.439733 0.254549 
8.601399 0.439772 0.252908 
8.597771 0.393777 0.264719 
8.597771 0.438018 0.238066 
8.594143 0.482571 0.260049 
8.594143 0.468138 0.258162 
8.592934 0.418378 0.249541 
8.594143 0.438915 0.255438 
8.592934 0.416664 0.247095 
8.589305 0.390023 0.260642 
8.591724 0.438193 0.252347 
8.585676 0.401676 0.247371 
8.589305 0.412887 0.249225 
8.589305 0.434334 0.241933 
8.584467 0.437940 0.242165 
8.585676 0.386037 0.254472 
8.584467 0.398621 0.239777 
8.583258 0.430865 0.255612 
8.583258 0.401384 0.235338 
8.584467 0.442814 0.238748 
8.582048 0.376706 0.246592 
8.580839 0.426442 0.249920 
8.580839 0.393758 0.248852 
8.579629 0.471340 0.251105 
8.577210 0.463375 0.255412 
8.578421 0.388837 0.280696 
8.576002 0.377853 0.251292 
8.574793 0.403505 0.250345 
8.572373 0.426345 0.242403 
8.572373 0.439149 0.252611 
8.574792 0.431235 0.249096 
8.569954 0.376668 0.250403 
8.569955 0.370450 0.242255 
8.568745 0.502840 0.255651 
8.568745 0.476847 0.265705 
8.571164 0.426559 0.262961 
8.569955 0.421650 0.267155 
8.568745 0.427786 0.257673 
8.562698 0.377406 0.263650 
8.562698 0.403232 0.247976 
8.563908 0.436965 0.264481 
8.562698 0.414990 0.255606 
8.562698 0.423286 0.257080 
8.557859 0.399944 0.228746 
8.560279 0.455804 0.242776 
8.559069 0.446129 0.259527 
8.555441 0.459140 0.264397 
8.556650 0.404166 0.245730 
8.556650 0.430105 0.260970 
8.554232 0.405120 0.249425 
8.555441 0.435737 0.245756 
8.555441 0.427299 0.258020 
8.551813 0.563084 0.256127 
8.549395 0.404575 0.610010 
8.546976 0.428157 0.247378 
8.545766 0.476066 0.252702 
8.538509 0.406230 0.250719 
8.538509 0.415905 0.249380 
8.536091 0.412789 0.248472 
8.532462 0.424591 0.239166 
8.528834 0.370411 0.248852 
8.526416 0.458613 0.250841 
8.521578 0.402999 0.254015 
8.515530 0.402571 0.261202 
8.514320 0.470969 0.268443 
8.510693 0.357573 0.252193 
8.505856 0.446714 0.241039 
8.501018 0.427319 0.270286 
8.497389 0.420832 0.261138 
8.496180 0.406774 0.272999 
8.490133 0.386932 0.234746 
8.487714 0.492810 0.249553 
8.482876 0.378786 0.274797 
8.476830 0.404867 0.265048 
8.474410 0.447455 0.244230 
8.465944 0.439889 0.245337 
8.465944 0.487787 0.249644 
8.455059 0.377037 0.236322 
8.453850 0.382421 0.254099 
8.450222 0.473586 0.236290 
8.449013 0.421260 0.274514 
8.442965 0.434392 0.254311 
8.439337 0.447786 0.245125 
8.434499 0.407125 0.250732 
8.427242 0.495977 0.244823 
8.426033 0.425780 0.256932 
8.419986 0.467104 0.253384 
8.418777 0.421377 0.264146 
8.412729 0.469485 0.263225 
8.409101 0.405743 0.265241 
8.405474 0.440006 0.249875 
8.401845 0.388234 0.235596 
8.395798 0.430573 0.245962 
8.394588 0.443418 0.260358 
8.388541 0.415437 0.273599 
8.381285 0.430729 0.262052 
8.381285 0.390237 0.245511 
8.375237 0.385493 0.272993 
8.375237 0.457013 0.239970 
8.367981 0.400644 0.268579 
8.364352 0.391813 0.261891 
8.357097 0.399341 0.250403 
8.357097 0.374685 0.244925 
8.352259 0.443574 0.258362 
8.349840 0.468646 0.246747 
8.345002 0.400956 0.246992 
8.340164 0.404945 0.241521 
8.337746 0.418690 0.253809 
8.335327 0.417677 0.244803 
8.330489 0.458496 0.254762 
8.326860 0.384773 0.258381 
8.323233 0.428741 0.250120 
8.323233 0.409655 0.244526 
8.319604 0.409071 0.255837 
8.314766 0.388370 0.274172 
8.308720 0.386115 0.258046 
8.307510 0.422215 0.256262 
8.306301 0.401267 0.247654 
8.300253 0.394613 0.236992 
8.296625 0.408117 0.254537 
8.295416 0.427981 0.261093 
8.291788 0.374763 0.240035 
8.289370 0.446343 0.257808 
8.286951 0.425585 0.264855 
8.284532 0.415671 0.280967 
8.277275 0.415944 0.258027 
8.276065 0.415846 0.266935 
8.276065 0.534291 0.264726 
8.268808 0.387418 0.254530 
8.265181 0.429306 0.283249 
8.267599 0.412926 0.254717 
8.260343 0.424474 0.246335 
8.260343 0.378106 0.260977 
8.257923 0.513462 0.266916 
8.256714 0.428975 0.261382 
8.249458 0.386757 0.250938 
8.248249 0.426461 0.240369 
8.245830 0.450205 0.243838 
8.243411 0.462068 0.239610 
8.240993 0.373422 0.249508 
8.240993 0.473371 0.258317 
8.236155 0.394536 0.239321 
8.236155 0.427436 0.239095 
8.232527 0.403349 0.249605 
8.228897 0.376434 0.255889 
8.227688 0.476691 0.238922 
8.227688 0.443945 0.264494 
8.220431 0.392065 0.254472 
8.220431 0.509627 0.243503 
8.215594 0.454789 0.263231 
8.213175 0.388701 0.269094 
8.213175 0.383490 0.247004 
8.209547 0.396014 0.262664 
8.213175 0.430475 0.253101 
8.211966 0.438115 0.255979 
8.207129 0.470891 0.258523 
8.204710 0.366778 0.269822 
8.204710 0.413666 0.267457 
8.197453 0.428488 0.262555 
8.196243 0.508258 0.263959 
8.196243 0.435679 0.269577 
8.195034 0.491227 0.265209 
8.191406 0.403699 0.249541 
8.190197 0.395858 0.260719 
8.187778 0.503642 0.312319 
8.182940 0.460077 0.244443 
8.182940 0.520683 0.297550 
8.182940 0.610370 0.260178 
8.182940 0.469720 0.249244 
8.179312 0.417307 0.249148 
8.175682 0.443321 0.262774 
8.173264 0.386193 0.249238 
8.172054 0.392746 0.267908 
8.170845 0.406482 0.255960 
8.170845 0.398738 0.244282 
8.164799 0.423773 0.258838 
8.166008 0.408156 0.253275 
8.167217 0.441605 0.258832 
8.163589 0.387243 0.254607 
8.161171 0.451785 0.247622 
8.159961 0.419741 0.258040 
8.161171 0.396812 0.252547 
8.156332 0.448664 0.251877 
8.156332 0.411213 0.246033 
8.155123 0.440786 0.260320 
8.151495 0.429520 0.262130 
8.151494 0.429384 0.267341 
8.147867 0.491032 0.252438 
8.145449 0.417872 0.241579 
8.149076 0.426676 0.258020 
8.144238 0.377056 0.260287 
8.145449 0.392202 0.270731 
8.141819 0.420910 0.256578 
8.143029 0.398504 0.257421 
8.144238 0.421182 0.253294 
8.143029 0.431294 0.258175 
8.134562 0.386679 0.254260 
8.134562 0.453502 0.253648 
8.135773 0.410531 0.250043 
8.135773 0.394322 0.251671 
8.133353 0.424845 0.249219 
8.132144 0.463102 0.264913 
8.132144 0.455726 0.248684 
8.129725 0.420559 0.236014 
8.128515 0.433457 0.266369 
8.123678 0.503036 0.261324 
8.127306 0.398232 0.266923 
8.128515 0.391346 0.252380 
8.124887 0.403466 0.265834 
8.121260 0.379330 0.257299 
8.122469 0.402649 0.268849 
8.120050 0.389343 0.242918 
8.115212 0.636850 0.301041 
8.118841 0.596063 0.255689 
8.112793 0.435094 0.243510 
8.114002 0.406521 0.264101 
8.110374 0.405626 0.252714 
8.107956 0.423189 0.253442 
8.103117 0.442521 0.263966 
8.099489 0.425059 0.237719 
8.100698 0.405042 0.253957 
8.095861 0.421280 0.253609 
8.087396 0.423793 0.255908 
8.086186 0.424806 0.247024 
8.081348 0.400761 0.245653 
8.077720 0.469817 0.264139 
8.072883 0.434860 0.243677 
8.066835 0.479171 0.258162 
8.064417 0.442521 0.264623 
8.057159 0.398699 0.239700 
8.054741 0.448957 0.246078 
8.047485 0.440357 0.251330 
8.041437 0.490445 0.248530 
8.039019 0.435757 0.265705 
8.031761 0.415652 0.265840 
8.028133 0.436712 0.246618 
8.023296 0.442872 0.244880 
8.019669 0.422975 0.255206 
8.016039 0.361476 0.261460 
8.008783 0.370450 0.257692 
8.005156 0.442697 0.249251 
8.000318 0.462243 0.270608 
7.991851 0.413763 0.260075 
7.989432 0.440533 0.276970 
7.984594 0.409538 0.249541 
7.978548 0.430962 0.243066 
7.976129 0.415885 0.244823 
7.972500 0.416158 0.237828 
7.967663 0.394069 0.272161 
7.959197 0.452819 0.246741 
7.954359 0.413899 0.249122 
7.950731 0.396403 0.236972 
7.948312 0.443672 0.255998 
7.945893 0.428585 0.252238 
7.938637 0.418943 0.256327 
7.937428 0.378825 0.251350 
7.936218 0.404030 0.249534 
7.926543 0.444686 0.244314 
7.925333 0.480500 0.270351 
7.920496 0.422663 0.261035 
7.918077 0.439460 0.247700 
7.913239 0.459336 0.248923 
7.909611 0.439811 0.260133 
7.905982 0.426033 0.256456 
7.901145 0.401831 0.267760 
7.899935 0.392513 0.247597 
7.897516 0.484720 0.249650 
7.891470 0.416138 0.253442 
7.887842 0.447903 0.253127 
7.883004 0.434392 0.237809 
7.883004 0.412731 0.244250 
7.874537 0.396423 0.251420 
7.870909 0.483059 0.239719 
7.870909 0.515047 0.261112 
7.868490 0.397026 0.249605 
7.866072 0.412147 0.248047 
7.863653 0.481125 0.247468 
7.858815 0.385551 0.240318 
7.856396 0.410200 0.261344 
7.851558 0.405042 0.246161 
7.850349 0.416898 0.254331 
7.846721 0.409850 0.285410 
7.841884 0.421884 0.264191 
7.840673 0.448235 0.246226 
7.840673 0.452702 0.261543 
7.835836 0.376823 0.245067 
7.834627 0.401656 0.245370 
7.828580 0.434782 0.247931 
7.824951 0.388040 0.269745 
7.826161 0.391949 0.254292 
7.823742 0.409928 0.247391 
7.816485 0.437453 0.268443 
7.820113 0.405762 0.256468 
7.820114 0.426949 0.239829 
7.815276 0.405762 0.250571 
7.812857 0.446870 0.247146 
7.811647 0.515379 0.250320 
7.809228 0.465015 0.251156 
7.806810 0.456662 0.257318 
7.804391 0.436946 0.254762 
7.801972 0.439577 0.251923 
7.798344 0.419060 0.272116 
7.795925 0.454477 0.284823 
7.794716 0.492107 0.268991 
7.793507 0.489488 0.244893 
7.791088 0.388643 0.282501 
7.791087 0.401520 0.255805 
7.791088 0.470012 0.255078 
7.785040 0.416625 0.256501 
7.785040 0.441254 0.253629 
7.783831 0.419079 0.240685 
7.781412 0.534311 0.271388 
7.780203 0.387418 0.253416 
7.778993 0.383898 0.247165 
7.777784 0.435757 0.250480 
7.776574 0.399594 0.247307 
7.772946 0.409597 0.244983 
7.769318 0.391832 0.251169 
7.766900 0.430904 0.270789 
7.770527 0.405198 0.244481 
7.766900 0.427553 0.250339 
7.763271 0.451278 0.267438 
7.760852 0.385046 0.258980 
7.760852 0.384151 0.249347 
7.762062 0.433652 0.256520 
7.760852 0.399711 0.241489 
7.758433 0.392454 0.243722 
7.757224 0.468939 0.261466 
7.757223 0.379194 0.249708 
7.752386 0.438291 0.261479 
7.752386 0.411544 0.246908 
7.751176 0.390471 0.240299 
7.752386 0.416411 0.238310 
7.747548 0.434977 0.254176 
7.743920 0.393057 0.276074 
7.745130 0.424221 0.262812 
7.745130 0.394672 0.243523 
7.745130 0.413821 0.270363 
7.745130 0.418748 0.245685 
7.742711 0.435620 0.248923 
7.740292 0.418728 0.263180 
7.740292 0.420890 0.238047 
7.737873 0.388312 0.263373 
7.737873 0.430845 0.240768 
7.739082 0.408701 0.245756 
7.733035 0.393524 0.237526 
7.731826 0.429384 0.259740 
7.731826 0.439499 0.238857 
7.728197 0.447611 0.245537 
7.726988 0.395722 0.266710 
7.725779 0.413432 0.239835 
7.722151 0.426267 0.265022 
7.718523 0.428897 0.245344 
7.718523 0.452312 0.247159 
7.716104 0.401364 0.242280 
7.708847 0.457970 0.258156 
7.701590 0.406638 0.265724 
7.702800 0.407825 0.242731 
7.699171 0.423578 0.249051 
7.687078 0.432677 0.250075 
7.684659 0.463082 0.238349 
7.681030 0.441800 0.243458 
7.677402 0.415593 0.248079 
7.668936 0.402298 0.271388 
7.666517 0.395158 0.239057 
7.661679 0.395158 0.241888 
7.653214 0.428663 0.255348 
7.648376 0.439733 0.283971 
7.641119 0.516123 0.253725 
7.639910 0.441137 0.258613 
7.631444 0.418728 0.244475 
7.626606 0.424299 0.252882 
7.621768 0.406872 0.245749 
7.616930 0.390082 0.239282 
7.614512 0.478722 0.255148 
7.607255 0.401676 0.242248 
7.604836 0.424533 0.272200 
7.597580 0.462263 0.253339 
7.592742 0.421708 0.252084 
7.589114 0.381255 0.248375 
7.584276 0.435523 0.273218 
7.580648 0.412264 0.248086 
7.578229 0.397998 0.275223 
7.573392 0.434061 0.283127 
7.569764 0.416255 0.250815 
7.563716 0.472238 0.258259 
7.560088 0.476007 0.257628 
7.558878 0.403057 0.250049 
7.550413 0.469329 0.279020 
7.546784 0.430962 0.272509 
7.549203 0.432112 0.264410 
7.541946 0.409869 0.260448 
7.534690 0.408234 0.243117 
7.534690 0.392357 0.246625 
7.529853 0.402882 0.256262 
7.525015 0.441546 0.273682 
7.525015 0.472414 0.240305 
7.521387 0.428975 0.261395 
7.517758 0.452292 0.255432 
7.515340 0.405062 0.240466 
7.510502 0.446967 0.258748 
7.511711 0.404205 0.267206 
7.508083 0.398329 0.264732 
7.508083 0.408234 0.259527 
7.503245 0.498577 0.253996 
7.498407 0.460175 0.287912 
7.494780 0.469602 0.246071 
7.493570 0.480539 0.288550 
7.486313 0.528220 0.327319 
7.488732 0.615974 0.252489 
7.486313 0.441800 0.251910 
7.481476 0.457150 0.255232 
7.481476 0.426208 0.250146 
7.481476 0.411115 0.263354 
7.475429 0.428644 0.245125 
7.474219 0.418865 0.260114 
7.474219 0.399360 0.258117 
7.470591 0.387320 0.278768 
7.469381 0.463863 0.253848 
7.466963 0.483372 0.242647 
7.464544 0.475636 0.260513 
7.464544 0.381663 0.250931 
7.458497 0.404575 0.256797 
7.459706 0.419099 0.259972 
7.458497 0.456838 0.251163 
7.456078 0.386426 0.247680 
7.453659 0.379291 0.260494 
7.454868 0.424280 0.256153 
7.451241 0.411310 0.235975 
7.450031 0.429267 0.254794 
7.447612 0.418008 0.255155 
7.445193 0.461736 0.256913 
7.445193 0.394419 0.249624 
7.443984 0.390665 0.254009 
7.440355 0.422643 0.252528 
7.440355 0.422059 0.248221 
7.437937 0.470188 0.237789 
7.439146 0.389693 0.247494 
7.436727 0.422936 0.263218 
7.433099 0.417248 0.259721 
7.431890 0.413120 0.254479 
7.431890 0.423968 0.256475 
7.430680 0.453111 0.261550 
7.430680 0.429365 0.246438 
7.428261 0.422098 0.264880 
7.430680 0.414873 0.258433 
7.423424 0.416995 0.247661 
7.423424 0.485130 0.255200 
7.421005 0.422137 0.251053 
7.423424 0.391949 0.260667 
7.421005 0.413120 0.263334 
7.418586 0.435542 0.248472 
7.417377 0.455609 0.247197 
7.419795 0.466869 0.246341 
7.416167 0.390548 0.241302 
7.411329 0.463980 0.251259 
7.416167 0.406171 0.241026 
7.413748 0.415379 0.275436 
7.411330 0.437355 0.259585 
7.411330 0.490758 0.257512 
7.416167 0.406191 0.252386 
7.411329 0.423559 0.269171 
7.408911 0.394944 0.246747 
7.407701 0.390354 0.254562 
7.408911 0.410278 0.256224 
7.405282 0.457013 0.260487 
7.407701 0.457013 0.261518 
7.406492 0.408098 0.259920 
7.406492 0.445232 0.261518 
7.401654 0.484309 0.259289 
7.404073 0.409967 0.253790 
7.401654 0.443009 0.251498 
7.400445 0.402804 0.268991 
7.402864 0.414600 0.251511 
7.400445 0.423598 0.262651 
7.399235 0.395489 0.240028 
7.398026 0.410278 0.253326 
7.393188 0.426520 0.247352 
7.400445 0.455882 0.252566 
7.394398 0.440630 0.255593 
7.394398 0.398407 0.234624 
7.390769 0.420559 0.262458 
7.391979 0.402493 0.251279 
7.389560 0.386232 0.271968 
7.391979 0.428585 0.247416 
7.393188 0.421845 0.252206 
7.394398 0.463297 0.256945 
7.387141 0.409655 0.242087 
7.390769 0.458692 0.243799 
7.389560 0.385104 0.258619 
7.384722 0.369595 0.271646 
7.385932 0.406152 0.246554 
7.388350 0.420715 0.246271 
7.379884 0.419546 0.269042 
7.382303 0.465483 0.250648 
7.377466 0.386854 0.254318 
7.377466 0.406658 0.251343 
7.375047 0.428157 0.270048 
7.372628 0.434782 0.251111 
7.365372 0.402649 0.248369 
7.362952 0.418261 0.248536 
7.356905 0.435367 0.260783 
7.356905 0.424260 0.269055 
7.353277 0.458770 0.236515 
7.347230 0.389654 0.243593 
7.344811 0.413276 0.281057 
7.336346 0.427182 0.257100 
7.337555 0.409422 0.248472 
7.330298 0.399769 0.262072 
7.329089 0.426949 0.276415 
7.324251 0.397745 0.241277 
7.316994 0.392999 0.248034 
7.314576 0.403155 0.250764 
7.313366 0.412926 0.251472 
7.307319 0.438720 0.235924 
7.304900 0.411836 0.283443 
7.298853 0.432911 0.243014 
7.298853 0.463375 0.261595 
7.292806 0.464000 0.262085 
7.286759 0.384987 0.256365 
7.284340 0.439889 0.280167 
7.281921 0.401831 0.269867 
7.280712 0.446675 0.267251 
7.277083 0.414483 0.290021 
7.272246 0.377717 0.252167 
7.272246 0.367147 0.246863 
7.271037 0.434314 0.261788 
7.263780 0.405373 0.256417 
7.263780 0.438642 0.252154 
7.262570 0.447806 0.245859 
7.258942 0.499829 0.254421 
7.256524 0.454984 0.256816 
7.252895 0.451746 0.291853 
7.249267 0.533410 0.244211 
7.250477 0.525459 0.284926 
7.246848 0.381099 0.259212 
7.250477 0.412030 0.259817 
7.245639 0.499711 0.262432 
7.239592 0.387865 0.259289 
7.240801 0.524167 0.242525 
7.237173 0.459979 0.258323 
7.234754 0.447767 0.269571 
7.233544 0.433223 0.271453 
7.228707 0.419040 0.257370 
7.229917 0.395528 0.258284 
7.226288 0.406307 0.260667 
7.226288 0.472043 0.241315 
7.225079 0.412653 0.263296 
7.221450 0.504013 0.275887 
7.221450 0.393077 0.275178 
7.219031 0.653905 0.311603 
7.216613 0.374413 2.786854 
7.219031 0.400391 0.547804 
7.211775 0.384326 0.250918 
7.215403 0.473840 0.252463 
7.214194 0.402221 0.251150 
7.212985 0.498225 0.265808 
7.210566 0.386348 0.255721 
7.208147 0.450146 0.244983 
7.205728 0.450381 0.257975 
7.203309 0.465522 0.253378 
7.203309 0.430884 0.238124 
7.206937 0.386270 0.238960 
7.202100 0.475246 0.257975 
7.204518 0.456272 0.241521 
7.198471 0.436147 0.236129 
7.199680 0.440162 0.244057 
7.198471 0.445115 0.255850 
7.198471 0.395489 0.244031 
7.198471 0.409032 0.264494 
7.196053 0.448313 0.251858 
7.193634 0.422039 0.244803 
7.193634 0.428780 0.255387 
7.194843 0.401676 0.250892 
7.192425 0.419391 0.251150 
7.186377 0.417599 0.258594 
7.193634 0.431079 0.286783 
7.191215 0.432833 0.268823 
7.188796 0.400353 0.249013 
7.188796 0.404984 0.254936 
7.183958 0.448157 0.252469 
7.185168 0.385041 0.249907 
7.183959 0.380521 0.248197 
7.182749 0.409154 0.259444 
7.180330 0.416998 0.248827 
7.182749 0.423043 0.257467 
7.181540 0.456770 0.249758 
7.180330 0.455457 0.238894 
7.181540 0.490975 0.261379 
7.180330 0.479135 0.243794 
7.180330 0.421501 0.246965 
7.181540 0.440628 0.246632 
7.177911 0.408699 0.250006 
7.176702 0.432305 0.241642 
7.174283 0.358733 0.245210 
7.175492 0.433386 0.257157 
7.176702 0.386808 0.250783 
7.176702 0.428220 0.240523 
7.175492 0.406171 0.255803 
7.173074 0.443703 0.254569 
7.171865 0.393921 0.244866 
7.171865 0.401732 0.241645 
7.169446 0.432158 0.247076 
7.163398 0.408738 0.254751 
7.167027 0.466716 0.279349 
7.164608 0.538177 0.280035 
7.162189 0.402328 0.269085 
7.162189 0.412880 0.262734 
7.153723 0.470740 0.255698 
7.151304 0.414919 0.241945 
7.154932 0.425378 0.249220 
7.152514 0.375611 0.246745 
7.146466 0.431932 0.249039 
7.145257 0.407604 0.251259 
7.140419 0.388696 0.274295 
7.138000 0.398944 0.244489 
7.135581 0.411663 0.247574 
7.138000 0.389651 0.241088 
7.131953 0.438500 0.236129 
7.131953 0.399287 0.241480 
7.129535 0.423637 0.244784 
7.128325 0.447540 0.250653 
7.128325 0.458157 0.267140 
7.124697 0.415111 0.233280 
7.122278 0.381874 0.267831 
7.122278 0.377455 0.256237 
7.118649 0.431418 0.252181 
7.121068 0.457345 0.269467 
7.116230 0.404239 0.259923 
7.112602 0.491762 0.249697 
7.113811 0.501349 0.265728 
7.108974 0.423425 0.263297 
7.111393 0.460019 0.257142 
7.107765 0.454458 0.263056 
7.108974 0.400788 0.260205 
7.102927 0.452248 0.235307 
7.104136 0.421148 0.256535 
7.106555 0.442088 0.250111 
7.102927 0.406648 0.249631 
7.099299 0.497438 0.248420 
7.099299 0.427299 0.248903 
7.099299 0.387131 0.256707 
7.098089 0.518677 0.270012 
7.099299 0.447045 0.267937 
7.098089 0.433418 0.269042 
7.095671 0.387252 0.257103 
7.095671 0.430573 0.259473 
7.092042 0.418514 0.529884 
7.092042 0.416742 0.250503 
7.090833 0.421952 0.267515 
7.092042 0.430417 0.262036 
7.089623 0.428390 0.265009 
7.088414 0.476320 0.251523 
7.087205 0.381352 0.244668 
7.084786 0.422507 0.246766 
7.085996 0.419829 0.244977 
7.084786 0.365127 0.275500 
7.084786 0.396695 0.256781 
7.081158 0.403505 0.264301 
7.084786 0.380438 0.264117 
7.081158 0.434422 0.249347 
7.079948 0.425215 0.232662 
7.076320 0.442707 0.261392 
7.079948 0.442609 0.256874 
7.071483 0.424562 0.256246 
7.070273 0.439090 0.241624 
7.067854 0.437803 0.265425 
7.065435 0.448040 0.246119 
7.065435 0.429861 0.245633 
7.060597 0.436644 0.235001 
7.059388 0.446607 0.277476 
7.056969 0.448254 0.242361 
7.056969 0.425010 0.276167 
7.054550 0.400226 0.262220 
7.050922 0.403485 0.248903 
7.049713 0.408059 0.246773 
7.046084 0.450176 0.257077 
7.043665 0.439675 0.260706 
7.042456 0.401267 0.270670 
7.040037 0.463219 0.254347 
7.042456 0.440494 0.247671 
7.033990 0.418261 0.246261 
7.037619 0.426949 0.240752 
7.032781 0.407689 0.272178 
7.030362 0.450605 0.236750 
7.031571 0.408984 0.253590 
7.021896 0.416645 0.246419 
7.021896 0.407027 0.247449 
7.023106 0.411738 0.239732 
7.021896 0.457267 0.263631 
7.019477 0.407446 0.258957 
7.018268 0.454301 0.248504 
7.018268 0.517943 0.242615 
7.017058 0.399993 0.245244 
7.014639 0.446363 0.238043 
7.012221 0.422731 0.244629 
7.012221 0.445680 0.250696 
7.012221 0.413588 0.257203 
7.012221 0.386270 0.256826 
7.008593 0.465288 0.242844 
7.007383 0.450351 0.246290 
7.008593 0.403456 0.255148 
7.004964 0.395751 0.250236 
7.004964 0.480793 0.262136 
7.004964 0.409558 0.267370 
7.001336 0.452009 0.260410 
7.001336 0.417375 0.260226 
6.998917 0.429131 0.277850 
6.997707 0.393514 0.243725 
7.000126 0.490045 0.238787 
6.997707 0.429004 0.255863 
6.997707 0.377921 0.249495 
6.997707 0.417911 0.257882 
6.994079 0.416840 0.245659 
6.997707 0.417365 0.248147 
6.995289 0.452653 0.244031 
6.992870 0.391385 0.245685 
6.992870 0.422819 0.255029 
6.991661 0.451941 0.249154 
6.995289 0.444539 0.267557 
6.990451 0.388215 0.245218 
6.989242 0.417638 0.244868 
6.986823 0.393018 0.243445 
6.991661 0.371751 0.252235 
6.989242 0.478830 0.251031 
6.986823 0.407835 0.240942 
6.985613 0.439870 0.265537 
6.988032 0.391093 0.253326 
6.983194 0.502156 0.265557 
6.985613 0.440835 0.242435 
6.983194 0.413344 0.258188 
6.983194 0.408497 0.251156 
6.983194 0.435172 0.269287 
6.983194 0.398164 0.263138 
6.981985 0.412390 0.246576 
6.981985 0.435825 0.243822 
6.983194 0.417872 0.261502 
6.983194 0.433535 0.241244 
6.980776 0.403612 0.265959 
6.980776 0.386970 0.258481 
6.980776 0.380040 0.243854 
6.980776 0.410298 0.265399 
6.975938 0.428322 0.276670 
6.978357 0.421445 0.240308 
6.978357 0.389771 0.243918 
6.973519 0.394925 0.242052 
6.975938 0.412293 0.297992 
6.974729 0.400401 0.283436 
6.979567 0.411875 0.257621 
6.973519 0.395654 0.243960 
6.974729 0.431352 0.252470 
6.974729 0.461463 0.257286 
6.973519 0.409285 0.279510 
6.973519 0.421036 0.254276 
6.974729 0.440075 0.267370 
6.971100 0.419644 0.258053 
6.973519 0.387009 0.261714 
6.971100 0.373947 0.241312 
6.973519 0.416051 0.276986 
6.969891 0.433174 0.261041 
6.973519 0.403408 0.249904 
6.972310 0.469622 0.263737 
6.971100 0.443321 0.249180 
6.968682 0.406521 0.256314 
6.963844 0.471008 0.264574 
6.963844 0.445466 0.252470 
6.962634 0.412643 0.267461 
6.959006 0.438554 0.232849 
6.959006 0.452682 0.246766 
6.955378 0.393933 0.260043 
6.955378 0.456604 0.247687 
6.951750 0.393583 0.249550 
6.948122 0.387223 0.258738 
6.949331 0.446841 0.252685 
6.945703 0.426666 0.240260 
6.942074 0.405091 0.257106 
6.940865 0.425371 0.253178 
6.937236 0.445553 0.246232 
6.938446 0.445865 0.260400 
6.934817 0.399380 0.262545 
6.933608 0.457979 0.276789 
6.933608 0.409353 0.260374 
6.929980 0.421475 0.245270 
6.929980 0.400878 0.251578 
6.929980 0.430543 0.263138 
6.927561 0.436273 0.252634 
6.925142 0.431859 0.261456 
6.925142 0.446802 0.245305 
6.920305 0.459443 0.254691 
6.921514 0.421981 0.255593 
6.919095 0.477550 0.254620 
6.916677 0.420306 0.258761 
6.919095 0.404731 0.247642 
6.915467 0.394691 0.263875 
6.914257 0.493260 0.234129 
6.916677 0.457911 0.237249 
6.911839 0.399535 0.255058 
6.911839 0.452916 0.252360 
6.910629 0.399924 0.246792 
6.908211 0.418631 0.252682 
6.910629 0.445095 0.257074 
6.910629 0.394477 0.242338 
6.908211 0.428955 0.245125 
6.905792 0.423403 0.266600 
6.905792 0.387807 0.255200 
6.909420 0.425098 0.265370 
6.905792 0.443964 0.242538 
6.903373 0.436575 0.248459 
6.908211 0.454340 0.253513 
6.900954 0.397940 0.269577 
6.902164 0.414152 0.235383 
6.899744 0.401812 0.264983 
6.902164 0.435659 0.257608 
6.900954 0.387534 0.246251 
6.898535 0.380846 0.252515 
6.899744 0.416314 0.236355 
6.894907 0.460311 0.242763 
6.898535 0.420287 0.248498 
6.896116 0.392902 0.255606 
6.892488 0.483215 0.263051 
6.898535 0.444647 0.252547 
6.897326 0.435718 0.261151 
6.898535 0.417034 0.265872 
6.896116 0.418514 0.243136 
6.893698 0.508238 0.240247 
6.893697 0.431781 0.257634 
6.892488 0.455628 0.238433 
6.894907 0.442443 0.241991 
6.890069 0.398777 0.251305 
6.893698 0.374433 0.246631 
6.893697 0.423286 0.254176 
6.890069 0.420949 0.269403 
6.891279 0.394847 0.246901 
6.890069 3.777058 0.252843 
6.892488 0.524128 0.253970 
6.888860 0.434743 0.256533 
6.892488 0.443769 0.264094 
6.888860 0.466479 0.244610 
6.886441 0.453697 0.247558 
6.888860 0.377231 0.245344 
6.887650 0.401715 0.244353 
6.890069 0.508453 0.247172 
6.886441 0.407280 0.248266 
6.891279 0.430202 0.241154 
6.887650 0.401170 0.247951 
6.887650 0.485443 0.257660 
6.881603 0.392591 0.257763 
6.888860 0.424884 0.239456 
6.888860 0.422877 0.247590 
6.886441 0.467884 0.252232 
6.886441 0.419274 0.263856 
6.884022 0.392163 0.255882 
6.884022 0.383743 0.247378 
6.882812 0.436965 0.261801 
6.885231 0.403816 0.261975 
6.881603 0.467904 0.252637 
6.886441 0.433671 0.251498 
6.886441 0.428040 0.243439 
6.886441 0.373189 0.243484 
6.884022 0.435191 1.193281 
6.884022 0.519313 0.248678 
6.884022 0.453716 0.255245 
6.882812 0.430047 0.258323 
6.879184 0.414698 0.321536 
6.881603 0.526556 0.294156 
6.882812 0.467182 0.279361 
6.882812 0.447572 0.260635 
6.879184 0.505735 0.277498 
6.885231 0.473156 0.251671 
6.880394 0.417872 0.260056 
6.881603 0.434412 0.264062 
6.877975 0.403038 0.240910 
6.881603 0.397960 0.278884 
6.879184 0.425624 0.244044 
6.881603 0.381877 0.262671 
6.879184 0.369847 0.243233 
6.879184 0.363049 0.234939 
6.881603 0.426754 0.252959 
6.879184 0.420345 0.242512 
6.876765 0.378067 0.256732 
6.879184 0.389790 0.260526 
6.880394 0.414464 0.257789 
6.881603 0.415048 0.271627 
6.875556 0.380127 0.255625 
6.879184 0.368118 0.240511 
6.879184 0.388682 0.256597 
6.877975 0.421553 0.241360 
6.875556 0.404906 0.269378 
6.876765 0.470052 0.265692 
6.876765 0.441644 0.257492 
6.876766 0.424513 0.265434 
6.879184 0.385357 0.252193 
6.879184 0.402610 0.256655 
6.874346 0.394730 0.249811 
6.875556 0.434724 0.259244 
6.874346 0.477335 0.265428 
6.876765 0.386154 0.253217 
6.875556 0.483782 0.247629 
6.876765 0.440494 0.284191 
6.871928 0.422702 0.252515 
6.869509 0.424085 0.237075 
6.870719 0.455433 0.253597 
6.871928 0.436244 0.253249 
6.867090 0.445602 0.246110 
6.867090 0.464624 0.258677 
6.864671 0.457092 0.257325 
6.861043 0.427494 0.256430 
6.859834 0.457248 0.253622 
6.853786 0.468997 0.238902 
6.850158 0.449581 0.250558 
6.847740 0.448177 0.260184 
6.845321 0.398135 0.239417 
6.838064 0.478488 0.243754 
6.832017 0.430047 0.264681 
6.828389 0.408838 0.270241 
6.821132 0.421553 0.258381 
6.816294 0.442073 0.246509 
6.816294 0.453911 0.238220 
6.810247 0.403972 0.273869 
6.809038 0.443574 0.247455 
6.801782 0.407825 0.248279 
6.796944 0.440182 0.245485 
6.792106 0.426500 0.251208 
6.794525 0.414678 0.239037 
6.788478 0.409694 0.261898 
6.783640 0.429481 0.239185 
6.778802 0.450010 0.252805 
6.775174 0.428800 0.261118 
6.775174 0.400430 0.268649 
6.771546 0.481008 0.263695 
6.770337 0.397551 0.262407 
6.764289 0.445466 0.254891 
6.761870 0.406405 0.241714 
6.761870 0.431917 0.249528 
6.757033 0.400567 0.257634 
6.757032 0.422273 0.253461 
6.752195 0.432132 0.244185 
6.750986 0.422312 0.251562 
6.749777 0.415788 0.266472 
6.750986 0.458535 0.239539 
6.746148 0.406619 0.256295 
6.744939 0.424241 0.240903 
6.742520 0.422897 0.261556 
6.740101 0.372392 0.247358 
6.740101 0.399516 0.251923 
6.738892 0.461833 0.258922 
6.737682 0.445622 0.254002 
6.737682 0.402512 0.256076 
6.734054 0.397084 0.251002 
6.731635 0.391832 0.274868 
6.731635 0.387048 0.245601 
6.731635 0.376221 0.250493 
6.729216 0.440435 0.269004 
6.731635 0.428507 0.246020 
6.724379 0.389557 0.244803 
6.724379 0.440806 0.259463 
6.725588 0.400761 0.249991 
6.725588 0.441936 0.253294 
6.723169 0.409947 0.241405 
6.720750 0.395547 0.235074 
6.721960 0.390043 0.241013 
6.719541 0.480246 0.263476 
6.718331 0.487045 0.241965 
6.718331 0.390023 0.250094 
6.720750 0.429696 0.259965 
6.715912 0.441196 0.252051 
6.713493 0.417872 0.240826 
6.714703 0.386193 0.239089 
6.712284 0.411952 0.256359 
6.712284 0.421689 0.254582 
6.711075 0.452838 0.249109 
6.711075 0.456389 0.243928 
6.713493 0.455745 0.244655 
6.711075 0.425176 0.241856 
6.709866 0.434178 0.251897 
6.707447 0.416684 0.251768 
6.708656 0.432619 0.261827 
6.707447 0.439324 0.254562 
6.707447 0.490523 0.258697 
6.707447 0.415496 0.254807 
6.706237 0.434626 0.264648 
6.703818 0.406268 0.244108 
6.703818 0.405101 0.255541 
6.702609 0.429910 0.248575 
6.702609 0.419391 0.246889 
6.703818 0.390976 0.265293 
6.701400 0.390315 0.264004 
6.702609 0.383043 0.255425 
6.703818 0.410629 0.244700 
6.700190 0.456311 0.247365 
6.701400 0.433145 0.241714 
6.700190 0.457443 0.257228 
6.698980 0.429598 0.244571 
6.700190 0.404517 0.252953 
6.698980 0.424922 0.265976 
6.698980 0.425273 0.248755 
6.697771 0.466186 0.279436 
6.697771 0.404687 0.249902 
6.697771 0.446928 0.242512 
6.697771 0.449864 0.251566 
6.696562 0.402534 0.255593 
6.697771 0.498670 0.246844 
6.695353 0.432485 0.248145 
6.695353 0.428137 0.255028 
6.692934 0.373374 0.254747 
6.695353 0.448662 0.262964 
6.695353 0.469568 0.262436 
6.696562 0.416601 0.234109 
6.697771 0.461855 0.267480 
6.695353 0.427601 0.253008 
6.692934 0.372837 0.247622 
6.694143 0.391081 0.248721 
6.692934 0.401085 0.268326 
6.692934 0.386783 0.242916 
6.692934 0.385510 0.256825 
6.692934 0.387289 0.270133 
6.689305 0.386788 0.268637 
6.692934 0.387753 0.257352 
6.690515 0.447501 0.254780 
6.691724 0.403259 0.264810 
6.691724 0.438608 0.260050 
6.691724 0.451441 0.247619 
6.691724 0.445965 0.264100 
6.690515 0.428860 0.245033 
6.691724 0.383840 0.254998 
6.690515 0.442192 0.256671 
6.690515 0.432916 0.242496 
6.692934 0.387892 0.242256 
6.688096 0.384134 0.263221 
6.690515 0.432042 0.258209 
6.689305 0.443101 0.257667 
6.688096 0.424845 0.269576 
6.685677 0.395431 0.250143 
6.688096 0.464507 0.257714 
6.689305 0.442039 0.258511 
6.689305 0.407426 0.274299 
6.685677 0.373779 0.242489 
6.688096 0.426233 0.238454 
6.688096 0.433274 0.244985 
6.688096 0.493771 0.247799 
6.683258 0.413933 0.260933 
6.688096 0.419111 0.255431 
6.688096 0.431033 0.280021 
6.685677 0.406628 0.254093 
6.688096 0.417110 0.239369 
6.682049 0.409891 0.251586 
6.683258 0.376024 0.252687 
6.685677 0.442768 0.259310 
6.688096 0.391322 0.250342 
6.685677 0.418965 0.239910 
6.685677 0.479450 0.260383 
6.683258 0.439853 0.264400 
6.688096 0.465278 0.239534 
6.685677 0.410587 0.252956 
6.685677 0.396799 0.248004 
6.686887 0.417555 0.246856 
6.688096 0.383106 0.253287 
6.685677 0.390731 0.252738 
6.685677 0.404527 0.241523 
6.682049 0.418884 0.262127 
6.680840 0.467323 0.248247 
6.682049 0.455887 0.259048 
6.684468 0.408307 0.245351 
6.682049 0.415632 0.267805 
6.680840 2.833323 0.254258 
6.685677 0.399822 0.251032 
6.683258 0.420406 0.247048 
6.682049 0.411023 0.261264 
6.685677 0.394723 0.258126 
6.683258 0.415727 0.264096 
6.684468 0.423483 0.256349 
6.685677 0.433803 0.249024 
6.680840 0.449800 0.245270 
6.683258 0.387845 0.259006 
6.685677 0.409300 0.247687 
6.679630 0.432219 0.245329 
6.682049 0.415087 0.242006 
6.683258 0.395022 0.254794 
6.678421 0.384316 0.275961 
6.680840 0.426199 0.256693 
6.682049 0.382761 0.247642 
6.682049 0.357995 0.272061 
6.678421 0.384761 0.237498 
6.682049 0.444744 0.271656 
6.679630 0.433871 0.254455 
6.683258 0.379155 0.249478 
6.682049 0.421200 0.243651 
6.680840 0.393422 0.258907 
6.682049 0.417869 0.252292 
6.682049 0.375638 0.253570 
6.678421 0.424014 0.247593 
6.678421 0.449040 0.245418 
6.678421 0.369352 0.251642 
6.678421 0.439724 0.247977 
6.680840 0.389792 0.249743 
6.678421 0.465979 0.251690 
6.679630 0.422151 0.242659 
6.677211 0.392831 0.249370 
6.676002 0.464742 0.242099 
6.680840 0.396734 0.257004 
6.680840 0.387782 0.241151 
6.676002 0.417377 0.245887 
6.679630 0.450949 0.263309 
6.676002 0.423556 0.244964 
6.673583 0.421621 0.263838 
6.672373 0.394934 0.251887 
6.667536 0.371455 0.250968 
6.662698 0.375327 0.268827 
6.662698 0.437959 0.260011 
6.656651 0.461092 0.253457 
6.654232 0.427543 0.248628 
6.644557 0.389348 0.256510 
6.640928 0.364486 0.264790 
6.634881 0.426500 0.246789 
6.634881 0.448069 0.254007 
6.628835 0.419537 0.254719 
6.622787 0.414060 0.244370 
6.621578 0.511481 0.255325 
6.615530 0.403291 0.265365 
6.611902 0.388268 0.239785 
6.608274 0.426671 0.244230 
6.603436 0.431172 0.259658 
6.602227 0.447762 0.262957 
6.596180 0.446119 0.245516 
6.596180 0.389732 0.246319 
6.592551 0.467616 0.262466 
6.591342 0.451878 0.264433 
6.586504 0.414011 0.254833 
6.584085 0.441810 0.248643 
6.582876 0.418544 0.247070 
6.578038 0.434407 0.245878 
6.576829 0.442507 0.247711 
6.576829 0.412176 0.247757 
6.574410 0.397483 0.245534 
6.571991 0.444301 0.246129 
6.571991 0.410653 0.256003 
6.569572 0.512322 0.258887 
6.569572 0.404376 0.238199 
6.565945 0.464224 0.265215 
6.563525 0.435864 0.255694 
6.562316 0.384229 0.271406 
6.559897 0.437282 0.250426 
6.561107 0.386513 0.268682 
6.557478 0.392498 0.234139 
6.557478 0.414829 0.248651 
6.555059 0.427942 0.262977 
6.557478 0.399837 0.259241 
6.552640 0.435562 0.261727 
6.553850 0.499613 0.240968 
6.550222 0.421406 0.272790 
6.552640 0.426033 0.264307 
6.547803 0.389557 0.245534 
6.550222 0.394069 0.257054 
6.547803 0.438573 0.254617 
6.546594 3.569987 0.267238 
6.545384 0.431547 0.262600 
6.544175 0.417385 0.257779 
6.544175 0.387204 0.260835 
6.544175 0.443720 0.243773 
6.540546 0.433681 0.264069 
6.545384 0.401063 0.241122 
6.542965 0.428186 0.253580 
6.540546 0.345858 0.253381 
6.538128 0.390480 0.243046 
6.538128 0.375443 0.262004 
6.539337 0.464907 0.286116 
6.534499 0.398300 0.237538 
6.535709 0.395975 0.252660 
6.536919 0.484085 0.263473 
6.535709 0.407261 0.277730 
6.533290 0.398922 0.245045 
6.533290 0.412381 0.265811 
6.535709 0.403252 0.241090 
6.532081 0.414805 0.242708 
6.534499 0.426627 0.262787 
6.530871 0.473576 0.265035 
6.528452 0.415077 0.251182 
6.533290 0.409636 0.254994 
6.533290 0.463893 0.254276 
6.533290 0.417784 0.281711 
6.528452 0.438759 0.256729 
6.528452 0.411972 0.254813 
6.528452 0.451336 0.258999 
6.524824 0.403884 0.268765 
6.527243 0.383383 0.267915 
6.528452 0.446236 0.248263 
6.528452 0.418826 0.254868 
6.527243 0.425906 0.264236 
6.524824 0.398650 0.269213 
6.524824 0.416411 0.263566 
6.523615 0.422731 0.254704 
6.522406 0.387836 0.237635 
6.524824 0.440620 0.248514 
6.521196 0.385444 0.256636 
6.519986 0.396024 0.257592 
6.517568 0.414396 0.279629 
6.510311 0.423939 0.262397 
6.506683 0.414055 0.247671 
6.504264 0.421777 0.261122 
6.499426 0.438125 0.247101 
6.490960 0.402006 0.246898 
6.489751 0.392260 0.257582 
6.484913 0.407426 0.262490 
6.482494 0.460048 0.287447 
6.474029 0.560279 0.233920 
6.470400 0.492488 0.261775 
6.464354 0.413237 0.269242 
6.460725 0.436302 0.239617 
6.458306 0.425877 0.256829 
6.452259 0.410531 0.259476 
6.454678 0.446012 0.236663 
6.448630 0.410901 0.249759 
6.443793 0.394361 0.264958 
6.441374 0.463649 0.244153 
6.441374 0.436108 0.259727 
6.438955 0.421358 0.260564 
6.431698 0.383490 0.255039 
6.431698 0.415223 0.246213 
6.429280 0.414659 0.263573 
6.429280 0.439402 0.263708 
6.428071 0.413198 0.249566 
6.420814 0.474445 0.239340 
6.424442 0.401111 0.256617 
6.422023 0.409538 0.242853 
6.419604 0.418573 0.263953 
6.418395 0.387126 0.260629 
6.417186 0.415885 0.231691 
6.414767 0.399886 0.253725 
6.408720 0.403116 0.250854 
6.409929 0.408565 0.240157 
6.409929 0.367069 0.256520 
6.406301 0.400858 0.253532 
6.408720 0.444725 0.244301 
6.403882 0.439344 0.256443 
6.402673 0.400664 0.245820 
6.402673 0.447065 0.243304 
6.405092 0.406205 0.241100 
6.402673 0.387320 0.263429 
6.400254 0.413018 0.239226 
6.397835 0.412510 0.233228 
6.397835 0.430461 0.265807 
6.397835 0.393174 0.259457 
6.399044 0.393726 0.258888 
6.394207 0.384516 0.251959 
6.396626 0.427733 0.262867 
6.396626 0.437360 0.252429 
6.392997 0.389518 0.266536 
6.391788 0.436943 0.242328 
6.389369 0.453375 0.252055 
6.391788 0.378057 0.252902 
6.390578 0.409127 0.244880 
6.391788 0.400265 0.239246 
6.390578 0.419766 0.262964 
6.389369 0.401291 0.245174 
6.386950 0.398297 0.249147 
6.388160 0.386951 0.244289 
6.389369 0.442207 0.254160 
6.385741 0.497754 0.250690 
6.385741 0.397069 0.247966 
6.383322 0.418962 0.260915 
6.385741 0.420009 0.271211 
6.385741 0.453233 0.251176 
6.384531 0.408027 0.245237 
6.383322 0.403950 0.274995 
6.382113 0.475717 0.263274 
6.382113 0.448635 0.247513 
6.380903 0.391978 0.255410 
6.383322 0.371853 0.241087 
6.380903 0.454638 0.248926 
6.382113 0.382907 0.242819 
6.383322 0.388978 0.250130 
6.380903 0.502835 0.241660 
6.378484 0.434729 0.248003 
6.379694 0.406071 0.246527 
6.378484 0.392440 0.241296 
6.378484 0.440954 0.240724 
6.378484 0.351106 0.259717 
6.378484 0.415795 0.248050 
6.378484 0.417911 0.249544 
6.376065 0.392535 0.247664 
6.378484 0.435170 0.232487 
6.378484 0.411059 0.255581 
6.379694 0.410519 0.244089 
6.378484 0.409811 0.257282 
6.376065 0.361376 0.248515 
6.372437 0.426705 0.256970 
6.376065 0.389102 0.248799 
6.378484 0.406242 0.262197 
6.378484 0.436561 0.242034 
6.372437 0.416158 0.246691 
6.373646 0.427665 0.266149 
6.373646 0.417662 0.357896 
6.371227 0.672423 0.319404 
6.371227 0.553044 0.353507 
6.371227 0.539854 0.297742 
6.371227 0.427333 0.280833 
6.373647 0.406215 0.261242 
6.371227 0.444744 0.263038 
6.370018 0.410565 0.238738 
6.373646 0.414318 0.243296 
6.368809 0.388361 0.254137 
6.368809 0.485565 0.269763 
6.372437 0.415374 0.285597 
6.368809 0.498831 0.257051 
6.372437 0.375365 0.250732 
6.367599 0.430982 0.249840 
6.371227 0.392377 0.240041 
6.370018 0.382363 0.250538 
6.370018 0.406395 0.260832 
6.366390 0.448645 0.244958 
6.368809 0.409305 0.256191 
6.366390 0.424338 0.260590 
6.368809 0.424961 0.257686 
6.368809 0.413276 0.241746 
6.368809 7.106448 0.258317 
6.368809 0.448567 0.252135 
6.366390 0.417054 0.256893 
6.370018 0.410045 0.265795 
6.370018 0.439032 0.257737 
6.370018 0.455374 0.250423 
6.365181 0.416353 0.257512 
6.367599 0.449698 0.252399 
6.370018 0.444120 0.252232 
6.366390 0.432015 0.262767 
6.365181 0.456252 0.244024 
6.368809 0.427319 0.234907 
6.366390 0.452643 0.249425 
6.366390 0.402746 0.244108 
6.367599 0.466518 0.253880 
6.366390 0.442970 0.251478 
6.365181 0.407845 0.271059 
6.366390 0.391151 0.261814 
6.367599 0.437238 0.236528 
6.365181 0.409499 0.274623 
6.366390 0.406774 0.249837 
6.363971 0.438486 0.267928 
6.366390 0.415613 0.254189 
6.366390 0.405801 0.261473 
6.363971 0.483450 0.259527 
6.365181 0.403758 0.264262 
6.363971 0.415496 0.246168 
6.363971 0.406502 0.244848 
6.363971 0.398913 0.250339 
6.362761 0.431138 0.276570 
6.360343 0.388157 0.263547 
6.357924 0.491579 0.238060 
6.351877 0.448625 0.262999 
6.353086 0.415126 0.236078 
6.344621 0.358873 0.249090 
6.338573 0.393485 0.263064 
6.336154 0.411485 0.270479 
6.330107 0.411368 0.253764 
6.328898 0.416100 0.255760 
6.325270 0.414075 0.247120 
6.320432 0.443223 0.266085 
6.316804 0.429540 0.279858 
6.308338 0.415165 0.325697 
6.309547 0.396111 0.373856 
6.305919 0.384579 0.514173 
6.301081 0.451882 0.586661 
6.296244 0.415437 0.748920 
6.292615 0.471028 0.836043 
6.292615 0.406599 0.988914 
6.292615 0.412575 1.156195 
6.287778 0.441215 1.391178 
6.286569 0.363262 1.593942 
6.286569 0.409363 1.841977 
6.284150 0.393894 2.149185 
6.281731 0.433730 2.470803 
6.281731 0.425526 2.895762 
6.278102 0.550691 3.339130 
6.276893 0.773533 3.811345 
6.275683 1.124075 4.454395 
6.274474 1.482009 5.170251 
6.274474 1.943690 6.021849 
6.272055 2.257691 7.019175 
6.272055 2.802121 8.185559 
6.269636 3.369663 9.441347 
6.267218 4.064342 10.924666 
6.264799 4.971777 12.559222 
6.264799 6.452073 14.468214 
6.262380 7.457991 16.262615 
6.268427 9.232040 18.164646 
6.262380 12.734993 21.691631 
6.262380 13.718480 23.379829 
6.259961 15.376746 25.233799 
6.259961 16.931553 27.109758 
6.256332 18.959070 28.966999 
6.258752 20.630955 31.055998 
6.255123 22.534538 33.096752 
6.257542 27.518839 53.559578 
6.257542 29.608999 38.914268 
6.257542 30.553808 40.221992 
6.255123 32.263882 41.669910 
6.256332 35.229767 43.571186 
6.256332 41.235371 48.425331 
6.251495 40.724194 48.391579 
6.253914 42.306374 47.511169 
6.247867 41.648262 48.704659 
6.247867 43.039986 50.118561 
6.250286 44.850319 51.746117 
6.249076 48.169903 54.208542 
6.247867 47.961048 53.172863 
6.247867 48.939533 54.170391 
6.247867 50.044300 54.863308 
6.247867 51.082016 55.551407 
6.250285 52.189495 56.285385 
6.246657 53.028759 56.886391 
6.246657 53.836185 57.400425 
6.246657 54.614517 57.902023 
6.243029 55.086296 58.414478 
6.245448 56.333527 59.350666 
6.246657 57.602787 60.345318 
6.243029 57.513378 60.673405 
6.244239 58.634270 61.291458 
6.246657 58.612003 61.388302 
6.240610 58.608418 61.429039 
6.243029 58.895790 62.148579 
6.246657 59.560837 62.508530 
6.243029 60.131756 62.324631 
6.243029 60.430737 62.339115 
6.245448 60.486439 62.482311 
6.239401 60.709255 62.571320 
6.241819 60.779068 62.767685 
6.239401 60.902718 62.733326 
6.244239 61.035187 62.918358 
6.243029 61.400600 63.044651 
6.240610 61.523811 66.005188 
6.240610 62.315315 63.693336 
6.240610 62.352394 63.657753 
6.239401 62.650360 63.685646 
6.236982 62.633785 63.614525 
6.236982 62.446396 63.812599 
6.238192 62.589474 63.792297 
6.239401 62.603027 64.073746 
6.234563 64.075089 64.315979 
6.235773 63.752888 64.232903 
6.238192 63.129150 64.293671 
6.233354 63.434090 64.301064 
6.234563 63.248726 64.335266 
6.238192 63.307087 64.546524 
6.239401 63.447861 64.507668 
6.236982 63.458069 64.574287 
6.239401 63.614613 64.625153 
6.238192 63.576099 65.553368 
6.238192 64.627419 65.446869 
6.235773 63.941868 65.299850 
6.235773 64.289482 65.311447 
6.234563 64.088387 65.273781 
6.235773 64.222229 65.288353 
6.234563 64.265373 65.497345 
6.235773 64.299332 65.385132 
6.234563 64.364479 65.476883 
6.234563 64.297394 65.402611 
6.233354 64.419174 65.558289 
6.234563 64.712700 65.891853 
6.233354 64.636948 65.832626 
6.234563 64.564552 65.860008 
6.233354 64.637077 65.775146 
6.230935 64.834801 65.824745 
6.233354 64.610718 65.846596 
6.233354 64.748268 65.912262 
6.230935 64.735847 65.890823 
6.230935 64.835976 66.340652 
6.230935 65.004471 66.146072 
6.233354 64.866508 66.209610 
6.228516 64.930916 66.144241 
6.233354 64.794327 66.156067 
6.234563 65.061157 67.213936 
6.233354 65.191452 66.638138 
6.230935 65.179581 66.319443 
6.232144 65.265106 66.408722 
6.233354 65.169952 66.414528 
6.228516 65.124352 66.392174 
6.230935 65.434853 66.793953 
6.233354 65.397766 66.656715 
6.233354 66.976280 66.650200 
6.229725 65.369965 66.762138 
6.230935 65.297874 66.719315 
6.230935 65.436981 66.832657 
6.230935 65.493065 66.696693 
6.230935 65.464684 66.658432 
6.230935 65.596375 66.673935 
6.230935 65.466003 66.788689 
6.230935 65.486961 66.829124 
6.227306 65.740128 67.112221 
6.230935 65.764931 67.045784 
6.230935 65.634270 67.021614 
6.228516 65.828972 67.066566 
6.230935 65.743729 66.958206 
6.229726 65.764664 67.048576 
6.230935 66.451981 67.402542 
6.230935 66.422005 67.304451 
6.228516 66.247849 67.279251 
6.230935 66.079765 67.289124 
6.228516 66.163002 67.269135 
6.228516 65.856087 67.161430 
6.230935 66.120300 67.226952 
6.233354 65.871185 67.161850 
6.228516 65.988228 67.242119 
6.227306 65.899521 67.286194 
6.228516 66.045311 67.212837 
6.227306 66.256462 67.311546 
6.229726 65.994522 67.251175 
6.227306 66.142990 67.131866 
6.230935 67.121338 67.291641 
6.226097 66.123116 67.311317 
6.230935 66.226997 67.699799 
6.227306 66.434425 67.529762 
6.229725 66.294296 67.561829 
6.230935 66.375847 67.392143 
6.227306 66.254852 67.462662 
6.228516 66.564766 67.421753 
6.228516 66.710083 67.656387 
6.224888 66.056572 67.355453 
6.223679 66.390549 67.442940 
6.226097 66.156830 67.304726 
6.227306 66.294159 67.347931 
6.230935 66.251884 67.390808 
6.228516 66.409317 67.294975 
6.227306 66.319626 67.389618 
6.228516 66.217583 67.303040 
6.228516 66.165291 67.481667 
6.226097 66.272217 67.493881 
6.227306 67.436195 67.530304 
6.226097 66.374229 67.535278 
6.226097 66.358315 67.532982 
6.228516 66.624634 67.461578 
6.227306 66.259827 67.675049 
6.228516 66.919945 67.868935 
6.228516 66.908234 67.878738 
6.227306 66.918449 67.879799 
6.227306 66.849129 67.789101 
6.228516 66.647415 67.879623 
6.230935 67.101097 67.739265 
6.226097 67.036186 67.889572 
6.227306 66.917900 67.903023 
6.227306 66.774750 67.938332 
6.227306 66.906319 67.801384 
6.228516 66.840706 67.784386 
6.227306 66.805870 68.212822 
6.228516 67.803329 68.413513 
6.227306 67.684593 68.192162 
6.227306 67.628487 68.168449 
6.227306 67.632225 68.147758 
6.227306 67.327347 68.030640 
6.227306 67.441444 67.983315 
6.224888 67.296310 68.052666 
6.228516 67.245422 68.056976 
6.228516 67.302483 68.010002 
6.228516 67.145706 67.992393 
6.228516 67.186096 67.904083 
6.227306 67.059563 67.996422 
6.223679 67.094810 67.854744 
6.224888 67.116692 67.982849 
6.224888 67.079910 67.840187 
6.227306 66.969177 67.892578 
6.226097 67.003288 67.950829 
6.224888 67.101784 67.943016 
6.228516 67.183075 67.924355 
6.224888 67.102058 67.946495 
6.224888 67.428780 67.956619 
6.227306 66.996742 67.969917 
6.226097 67.126808 68.063194 
6.224888 67.239662 68.003647 
6.228516 67.171288 68.148460 
6.226097 67.252686 67.940880 
6.223679 67.035912 67.995720 
6.228516 67.170601 68.342331 
6.227306 67.449142 68.021034 
6.226098 67.825500 68.046074 
6.224888 67.555908 68.179985 
6.230935 67.458221 68.038712 
6.226097 67.412270 68.048630 
6.226097 67.204987 68.036987 
6.224888 67.090157 68.068581 
6.227306 67.295898 68.028595 
6.226098 67.349449 68.043625 
6.226097 67.395767 67.950470 
6.226097 67.338593 68.040466 
6.226097 67.162262 68.110275 
6.224888 67.192383 68.142014 
6.228516 67.332687 68.013802 
6.223679 67.425880 68.071739 
6.226097 67.171715 68.026047 
6.223679 67.176079 68.083427 
6.226098 67.180740 68.065102 
6.223679 67.207047 68.130295 
6.227306 67.303856 68.058197 
6.226097 67.367310 68.196259 
6.223679 67.310188 68.176033 
6.224888 67.262848 68.062370 
6.228516 67.234177 68.019089 
6.226097 67.506287 68.099312 
6.227306 67.297684 68.211891 
6.226097 67.216080 68.192162 
6.223679 67.450645 68.163620 
6.227306 67.319794 68.163795 
6.226097 67.468971 68.125557 
6.223678 67.428780 68.195709 
6.224888 67.320328 68.071655 
6.226097 67.473915 68.118629 
6.226097 67.425339 68.281372 
6.224888 67.293839 68.214317 
6.223679 67.456299 68.275673 
6.228516 67.430840 68.239258 
6.226097 67.494858 68.157288 
6.224888 67.299736 68.161705 
6.224888 67.392738 68.159523 
6.226097 67.324173 68.163200 
6.226098 67.633606 68.071045 
6.223679 67.573425 68.230881 
6.223679 67.620636 68.198357 
6.223679 67.597572 68.167938 
6.223679 67.491005 68.232597 
6.223679 67.739769 68.236000 
6.223679 67.304008 68.282852 
